Timestamp, AF3,F7,F3,FC5,T7,P7,O1,O2,P8,T8,FC6,F4,F8,AF4,Marker
1415.88,4109,4106,4265,4125,4120,4121,4123,4136,4159,4121,4135,4098,4139,4115,0
1415.888,4096,4101,4262,4125,4119,4118,4121,4137,4158,4123,4124,4096,4137,4106,0
1415.896,4078,4092,4253,4114,4119,4109,4108,4119,4135,4122,4114,4086,4134,4090,0
1415.904,4080,4089,4248,4105,4118,4105,4100,4097,4115,4119,4108,4076,4134,4084,0
1415.912,4092,4093,4253,4116,4117,4116,4112,4105,4128,4119,4105,4079,4137,4090,0
1415.92,4086,4091,4255,4125,4117,4124,4123,4124,4147,4120,4109,4082,4131,4091,0
1415.928,4075,4089,4250,4120,4118,4123,4125,4120,4144,4119,4109,4076,4123,4088,0
1415.936,4082,4090,4248,4117,4119,4123,4126,4111,4142,4119,4106,4076,4125,4091,0
1415.943,4091,4088,4247,4118,4119,4121,4123,4114,4142,4120,4107,4078,4127,4093,0
1415.951,4087,4087,4246,4112,4119,4113,4112,4114,4136,4120,4107,4074,4122,4092,0
1415.959,4087,4089,4245,4110,4118,4110,4106,4106,4132,4120,4105,4078,4127,4096,0
1415.967,4098,4094,4251,4122,4119,4112,4111,4111,4137,4120,4112,4089,4139,4107,0
1415.975,4108,4097,4255,4131,4121,4111,4112,4120,4140,4120,4123,4097,4141,4116,0
1415.983,4109,4098,4254,4125,4118,4112,4114,4119,4136,4120,4121,4093,4135,4113,0
1415.991,4106,4101,4253,4128,4118,4121,4121,4120,4140,4120,4119,4090,4135,4112,0
1415.999,4110,4107,4258,4140,4123,4128,4129,4132,4153,4120,4130,4097,4138,4123,0
1416.007,4108,4101,4255,4130,4121,4125,4129,4138,4159,4120,4128,4099,4135,4123,0
1416.015,4092,4086,4243,4107,4118,4115,4117,4121,4146,4120,4112,4085,4133,4106,0
1416.022,4079,4082,4235,4104,4118,4112,4109,4105,4128,4120,4114,4077,4131,4100,0
1416.03,4080,4088,4236,4111,4120,4120,4111,4113,4127,4120,4125,4086,4126,4111,0
1416.038,4081,4087,4236,4109,4119,4121,4114,4123,4140,4120,4120,4093,4122,4114,0
1416.046,4075,4079,4235,4108,4119,4109,4108,4114,4136,4120,4113,4089,4124,4105,0
1416.054,4077,4079,4235,4107,4119,4106,4103,4106,4121,4120,4117,4084,4124,4106,0
1416.062,4091,4091,4237,4114,4120,4117,4111,4120,4130,4120,4123,4088,4122,4120,0
1416.07,4097,4097,4239,4129,4122,4122,4114,4128,4142,4120,4125,4095,4126,4126,0
1416.078,4088,4092,4238,4121,4120,4113,4107,4115,4125,4120,4124,4093,4126,4119,0
1416.085,4086,4089,4234,4107,4117,4114,4110,4112,4120,4120,4123,4089,4124,4120,0
1416.093,4098,4092,4239,4116,4119,4124,4122,4125,4137,4120,4126,4095,4126,4126,0
1416.101,4106,4096,4243,4125,4123,4123,4124,4124,4138,4120,4124,4103,4128,4125,0
1416.109,4113,4104,4243,4129,4122,4124,4129,4128,4140,4120,4127,4108,4131,4132,0
1416.117,4117,4110,4245,4140,4119,4135,4138,4139,4155,4120,4136,4111,4131,4143,0
1416.125,4108,4107,4242,4143,4118,4129,4130,4128,4149,4120,4132,4102,4124,4134,0
1416.133,4101,4106,4232,4138,4120,4121,4123,4121,4133,4120,4120,4093,4121,4119,0
1416.141,4106,4108,4229,4143,4120,4127,4134,4138,4144,4120,4123,4097,4126,4121,0
1416.148,4108,4107,4234,4143,4121,4129,4141,4147,4164,4120,4128,4099,4125,4126,0
1416.156,4105,4104,4231,4138,4122,4130,4137,4132,4154,4120,4124,4093,4124,4123,0
1416.164,4107,4107,4226,4144,4119,4134,4132,4117,4128,4120,4123,4091,4126,4122,0
1416.172,4107,4108,4225,4148,4117,4126,4124,4119,4128,4120,4124,4097,4127,4124,0
1416.18,4107,4101,4224,4140,4122,4118,4122,4131,4143,4120,4126,4102,4127,4126,0
1416.188,4102,4092,4219,4135,4122,4123,4121,4119,4128,4120,4123,4098,4126,4124,0
1416.196,4091,4089,4213,4135,4118,4121,4113,4107,4110,4120,4109,4090,4122,4112,0
1416.204,4091,4089,4212,4136,4118,4115,4109,4118,4122,4120,4103,4089,4124,4105,0
1416.211,4097,4096,4215,4141,4117,4119,4112,4118,4128,4120,4109,4091,4130,4112,0
1416.219,4098,4107,4213,4151,4114,4121,4114,4109,4117,4120,4112,4093,4130,4125,0
1416.227,4100,4109,4207,4154,4117,4113,4111,4114,4118,4120,4112,4096,4126,4124,0
1416.235,4101,4106,4202,4151,4120,4111,4108,4123,4122,4120,4117,4093,4124,4114,0
1416.243,4095,4106,4201,4151,4118,4117,4108,4123,4123,4120,4125,4092,4122,4115,0
1416.251,4093,4107,4202,4154,4118,4121,4111,4124,4123,4120,4120,4093,4119,4118,0
1416.259,4100,4107,4203,4153,4117,4122,4118,4129,4124,4120,4112,4093,4119,4111,0
1416.267,4102,4104,4200,4144,4115,4124,4122,4134,4130,4120,4115,4093,4116,4113,0
1416.275,4094,4095,4199,4138,4114,4114,4113,4127,4127,4120,4115,4092,4112,4123,0
1416.282,4092,4093,4201,4147,4114,4108,4109,4117,4118,4120,4107,4089,4117,4122,0
1416.29,4103,4101,4203,4153,4115,4118,4117,4121,4119,4120,4108,4091,4122,4118,0
1416.298,4103,4100,4204,4146,4119,4119,4117,4123,4121,4120,4117,4093,4112,4124,0
1416.306,4091,4091,4197,4138,4118,4105,4106,4119,4113,4120,4108,4084,4104,4118,0
1416.314,4089,4090,4190,4138,4115,4102,4105,4117,4108,4120,4093,4074,4108,4105,0
1416.322,4095,4094,4190,4141,4116,4113,4112,4118,4112,4120,4099,4076,4111,4108,0
1416.33,4091,4091,4193,4138,4118,4112,4112,4121,4113,4120,4110,4084,4108,4114,0
1416.338,4086,4088,4192,4142,4119,4105,4110,4119,4110,4120,4108,4084,4109,4112,0
1416.346,4100,4094,4197,4154,4118,4114,4118,4124,4118,4120,4112,4090,4113,4118,0
1416.353,4109,4094,4202,4151,4117,4124,4128,4134,4134,4120,4127,4103,4110,4129,0
1416.361,4097,4088,4194,4135,4120,4114,4122,4128,4130,4120,4121,4099,4105,4114,0
1416.369,4103,4094,4189,4137,4120,4103,4104,4113,4113,4120,4101,4084,4107,4094,0
1416.377,4125,4107,4194,4151,4119,4100,4095,4108,4105,4120,4093,4080,4107,4093,0
1416.385,4128,4111,4195,4152,4119,4098,4097,4099,4095,4120,4092,4081,4102,4097,0
1416.393,4137,4119,4198,4161,4117,4103,4105,4090,4094,4120,4096,4085,4106,4097,0
1416.401,4159,4130,4202,4177,4117,4108,4108,4097,4105,4120,4097,4088,4107,4094,2
1416.409,4158,4127,4202,4177,4118,4100,4102,4108,4105,4120,4093,4086,4096,4091,0
1416.416,4145,4123,4202,4171,4118,4091,4096,4104,4095,4119,4094,4083,4090,4087,0
1416.424,4141,4122,4201,4171,4115,4093,4096,4096,4095,4120,4091,4083,4091,4081,0
1416.432,4138,4114,4201,4167,4115,4095,4098,4104,4106,4120,4078,4078,4094,4075,0
1416.44,4136,4109,4200,4160,4117,4093,4098,4110,4105,4119,4073,4076,4099,4072,0
1416.448,4133,4111,4195,4156,4118,4094,4092,4101,4087,4120,4077,4075,4100,4069,0
1416.456,4128,4112,4191,4158,4118,4098,4095,4096,4075,4121,4071,4067,4088,4066,0
1416.464,4124,4111,4192,4164,4120,4101,4106,4092,4081,4121,4066,4061,4083,4068,0
1416.472,4123,4109,4187,4161,4122,4097,4103,4078,4077,4121,4064,4060,4089,4065,0
1416.479,4122,4106,4179,4151,4119,4088,4084,4070,4057,4121,4060,4057,4094,4061,0
1416.487,4120,4105,4179,4148,4117,4078,4070,4076,4055,4121,4060,4056,4102,4058,0
1416.495,4121,4108,4184,4155,4121,4080,4077,4087,4071,4121,4067,4059,4108,4063,0
1416.503,4122,4108,4185,4162,4120,4089,4091,4096,4082,4121,4075,4062,4107,4073,0
1416.511,4121,4108,4181,4157,4119,4092,4087,4098,4077,4121,4074,4063,4106,4075,0
1416.519,4122,4110,4179,4157,4121,4092,4083,4107,4076,4121,4078,4068,4109,4076,0
1416.527,4126,4114,4185,4170,4121,4100,4100,4123,4096,4121,4097,4079,4112,4089,0
1416.535,4127,4113,4188,4176,4117,4105,4111,4130,4112,4121,4106,4086,4112,4098,0
1416.542,4123,4108,4181,4170,4118,4096,4099,4124,4104,4121,4093,4079,4107,4087,0
1416.55,4121,4108,4177,4179,4123,4093,4096,4122,4094,4121,4089,4073,4099,4082,0
1416.558,4121,4111,4183,4188,4119,4104,4105,4121,4095,4121,4097,4077,4094,4091,0
1416.566,4123,4112,4188,4179,4118,4109,4109,4117,4097,4121,4095,4079,4093,4093,0
1416.574,4124,4112,4185,4176,4120,4106,4104,4114,4094,4121,4092,4077,4096,4090,0
1416.582,4122,4112,4184,4183,4117,4105,4098,4100,4084,4121,4091,4073,4098,4089,0
1416.59,4120,4112,4185,4185,4117,4100,4096,4084,4070,4121,4081,4067,4094,4088,0
1416.598,4126,4113,4187,4182,4121,4093,4097,4089,4064,4121,4082,4070,4095,4091,0
1416.606,4124,4110,4185,4179,4120,4095,4097,4097,4056,4121,4088,4073,4102,4091,0
1416.614,4112,4105,4178,4176,4118,4093,4092,4092,4045,4121,4081,4064,4104,4081,0
1416.621,4113,4111,4180,4180,4120,4093,4097,4098,4051,4121,4083,4066,4106,4087,0
1416.629,4126,4122,4192,4188,4120,4104,4106,4112,4065,4121,4101,4084,4114,4105,0
1416.637,4128,4123,4191,4185,4119,4109,4109,4111,4070,4121,4103,4087,4118,4106,0
1416.645,4119,4111,4181,4181,4120,4098,4103,4101,4066,4121,4092,4075,4111,4096,0
1416.653,4115,4106,4180,4184,4120,4096,4095,4101,4058,4121,4092,4075,4112,4093,0
1416.661,4119,4111,4185,4184,4119,4101,4098,4113,4065,4121,4095,4080,4120,4094,0
1416.669,4121,4109,4184,4175,4119,4096,4103,4108,4071,4121,4095,4076,4121,4092,0
1416.677,4119,4109,4183,4172,4121,4097,4101,4086,4054,4121,4097,4078,4121,4096,0
1416.684,4119,4115,4184,4177,4121,4104,4103,4082,4048,4121,4097,4087,4119,4101,0
1416.692,4120,4118,4183,4183,4120,4105,4110,4103,4068,4121,4095,4083,4111,4098,0
1416.7,4118,4118,4183,4185,4121,4097,4102,4105,4069,4121,4088,4075,4106,4091,0
1416.708,4122,4116,4182,4177,4120,4091,4087,4085,4048,4121,4080,4074,4108,4089,0
1416.716,4127,4116,4180,4174,4117,4092,4088,4081,4050,4121,4084,4076,4108,4096,0
1416.724,4127,4121,4183,4180,4116,4091,4092,4097,4064,4121,4098,4081,4105,4107,0
1416.732,4124,4122,4181,4178,4120,4086,4086,4098,4056,4121,4099,4083,4103,4107,0
1416.74,4118,4109,4168,4167,4119,4083,4080,4085,4045,4121,4092,4075,4100,4095,0
1416.747,4117,4107,4170,4166,4116,4090,4094,4095,4062,4121,4107,4079,4101,4097,0
1416.755,4125,4122,4184,4174,4117,4098,4110,4116,4083,4121,4123,4098,4107,4114,0
1416.763,4124,4121,4180,4176,4119,4095,4105,4108,4073,4121,4112,4096,4114,4114,0
1416.771,4116,4113,4172,4171,4120,4094,4096,4088,4056,4121,4102,4078,4115,4106,0
1416.779,4118,4117,4176,4170,4121,4102,4102,4101,4069,4121,4113,4079,4111,4113,0
1416.787,4125,4121,4177,4176,4121,4108,4108,4123,4092,4121,4124,4094,4109,4128,0
1416.795,4119,4113,4172,4174,4118,4100,4101,4112,4087,4121,4114,4087,4110,4123,0
1416.803,4106,4103,4166,4165,4117,4092,4091,4098,4070,4121,4096,4072,4105,4099,0
1416.81,4106,4108,4167,4168,4120,4094,4088,4106,4073,4121,4093,4072,4097,4092,0
1416.818,4116,4118,4169,4175,4122,4097,4095,4111,4080,4121,4102,4075,4097,4103,0
1416.826,4122,4121,4171,4171,4119,4095,4102,4103,4074,4121,4106,4081,4103,4112,0
1416.834,4123,4121,4171,4170,4118,4096,4101,4107,4073,4121,4109,4090,4104,4117,0
1416.842,4124,4123,4172,4177,4118,4097,4094,4110,4079,4121,4114,4095,4100,4124,0
1416.85,4119,4117,4170,4171,4119,4093,4093,4098,4074,4121,4115,4094,4097,4123,0
1416.858,4111,4108,4165,4158,4118,4091,4095,4095,4066,4121,4105,4085,4094,4111,0
1416.866,4109,4106,4163,4156,4118,4094,4093,4106,4070,4121,4096,4077,4092,4105,0
1416.874,4108,4108,4162,4160,4119,4094,4092,4109,4074,4121,4097,4077,4090,4108,0
1416.881,4106,4108,4157,4155,4119,4089,4090,4104,4066,4121,4103,4078,4090,4108,0
1416.889,4107,4109,4154,4156,4119,4094,4092,4107,4065,4121,4106,4074,4091,4105,0
1416.897,4109,4111,4161,4166,4119,4106,4102,4113,4077,4121,4107,4074,4091,4107,0
1416.905,4111,4109,4164,4166,4120,4108,4104,4111,4080,4121,4106,4075,4089,4108,0
1416.913,4112,4110,4164,4163,4118,4104,4103,4109,4081,4121,4102,4076,4089,4106,0
1416.921,4110,4110,4164,4166,4118,4100,4105,4108,4086,4121,4094,4078,4090,4104,0
1416.929,4103,4102,4158,4157,4120,4093,4096,4095,4069,4121,4093,4076,4091,4103,0
1416.937,4096,4100,4152,4144,4119,4090,4087,4084,4051,4121,4099,4075,4094,4108,0
1416.945,4093,4101,4154,4144,4119,4096,4096,4097,4065,4121,4104,4078,4094,4109,0
1416.952,4089,4092,4152,4140,4120,4098,4099,4108,4073,4121,4104,4075,4092,4105,0
1416.96,4091,4089,4151,4137,4119,4096,4088,4104,4064,4121,4107,4078,4091,4110,0
1416.968,4101,4102,4159,4147,4119,4103,4093,4113,4074,4121,4111,4087,4090,4123,0
1416.976,4108,4107,4162,4147,4120,4108,4106,4119,4084,4121,4111,4088,4089,4126,0
1416.984,4102,4100,4154,4134,4121,4101,4100,4107,4074,4121,4108,4081,4087,4116,0
1416.992,4094,4095,4147,4133,4119,4095,4093,4104,4074,4121,4106,4079,4092,4109,0
1417,4093,4096,4150,4139,4118,4096,4096,4111,4082,4121,4107,4082,4104,4110,0
1417.008,4094,4101,4151,4134,4119,4099,4098,4106,4076,4121,4111,4083,4109,4109,0
1417.015,4100,4107,4149,4137,4121,4106,4099,4111,4078,4121,4120,4087,4108,4111,0
1417.023,4109,4109,4151,4155,4121,4108,4107,4129,4096,4121,4122,4093,4110,4120,0
1417.031,4104,4108,4153,4154,4116,4107,4106,4125,4098,4121,4112,4090,4112,4119,0
1417.039,4089,4099,4146,4130,4116,4104,4094,4107,4081,4121,4107,4078,4106,4107,0
1417.047,4088,4091,4140,4119,4121,4096,4091,4106,4076,4121,4104,4072,4107,4099,0
1417.055,4093,4093,4140,4129,4123,4091,4096,4108,4078,4121,4099,4075,4107,4099,0
1417.063,4085,4095,4139,4130,4118,4095,4098,4101,4070,4121,4099,4075,4098,4099,0
1417.071,4082,4090,4139,4124,4116,4095,4095,4104,4071,4121,4106,4077,4091,4100,0
1417.078,4088,4096,4142,4127,4121,4088,4091,4111,4079,4121,4107,4076,4096,4097,0
1417.086,4090,4106,4144,4137,4122,4092,4092,4110,4078,4121,4103,4079,4101,4100,0
1417.094,4098,4108,4147,4140,4118,4104,4101,4110,4078,4121,4107,4090,4098,4113,0
1417.102,4112,4113,4153,4140,4116,4107,4102,4115,4083,4121,4120,4100,4100,4124,0
1417.11,4116,4118,4153,4141,4120,4102,4097,4121,4088,4121,4127,4099,4107,4128,0
1417.118,4109,4114,4150,4141,4122,4103,4100,4127,4095,4121,4119,4094,4104,4119,0
1417.126,4113,4111,4155,4141,4115,4108,4110,4126,4102,4121,4117,4096,4098,4112,0
1417.134,4117,4110,4159,4143,4114,4102,4108,4125,4100,4121,4121,4100,4100,4120,0
1417.141,4113,4106,4157,4135,4120,4096,4099,4123,4092,4121,4116,4092,4113,4123,0
1417.149,4106,4105,4154,4129,4121,4103,4101,4112,4088,4121,4113,4087,4124,4120,0
1417.157,4096,4100,4154,4128,4118,4111,4111,4111,4094,4121,4119,4095,4126,4122,0
1417.165,4083,4089,4149,4118,4121,4103,4105,4107,4083,4121,4121,4093,4128,4114,0
1417.173,4076,4086,4149,4111,4124,4098,4091,4094,4063,4121,4117,4080,4134,4103,0
1417.181,4082,4091,4157,4122,4119,4105,4098,4104,4077,4121,4121,4086,4139,4108,0
1417.189,4082,4091,4158,4125,4118,4109,4108,4124,4101,4121,4124,4093,4135,4114,0
1417.197,4072,4077,4151,4106,4122,4101,4098,4113,4087,4121,4107,4077,4126,4101,0
1417.205,4067,4068,4147,4097,4121,4094,4086,4101,4070,4121,4087,4061,4123,4087,0
1417.213,4074,4082,4149,4107,4117,4100,4095,4121,4086,4121,4094,4067,4125,4093,0
1417.22,4080,4095,4151,4114,4117,4109,4108,4131,4101,4121,4115,4077,4125,4105,0
1417.228,4079,4091,4153,4114,4119,4106,4106,4118,4092,4121,4114,4074,4123,4103,0
1417.236,4086,4096,4157,4119,4120,4103,4103,4109,4087,4121,4110,4079,4128,4100,0
1417.244,4093,4106,4156,4125,4119,4107,4107,4119,4097,4121,4115,4091,4131,4109,0
1417.252,4085,4100,4151,4124,4117,4106,4106,4122,4098,4121,4114,4090,4125,4110,0
1417.26,4080,4093,4150,4122,4116,4103,4107,4111,4093,4121,4108,4085,4120,4106,0
1417.268,4088,4101,4148,4121,4119,4112,4119,4120,4105,4121,4107,4089,4123,4113,0
1417.276,4097,4110,4149,4125,4120,4123,4128,4139,4125,4121,4115,4095,4131,4124,0
1417.283,4094,4108,4148,4126,4118,4123,4124,4136,4124,4121,4125,4092,4132,4123,0
1417.291,4087,4098,4143,4112,4121,4119,4121,4117,4104,4121,4129,4087,4121,4114,0
1417.299,4090,4096,4146,4105,4123,4116,4122,4113,4093,4121,4128,4087,4108,4111,0
1417.307,4090,4098,4148,4110,4119,4108,4110,4113,4090,4121,4127,4087,4104,4115,0
1417.315,4080,4093,4145,4108,4117,4101,4098,4105,4082,4121,4121,4081,4105,4109,0
1417.323,4079,4093,4143,4101,4120,4103,4101,4108,4081,4121,4118,4081,4102,4108,0
1417.331,4093,4105,4148,4107,4120,4111,4110,4127,4100,4121,4131,4093,4104,4122,0
1417.339,4098,4109,4150,4114,4117,4112,4111,4129,4108,4121,4139,4094,4103,4127,0
1417.346,4088,4101,4143,4104,4118,4107,4101,4108,4093,4121,4128,4081,4088,4111,0
1417.354,4086,4095,4136,4092,4119,4104,4099,4108,4090,4121,4121,4076,4073,4100,0
1417.362,4089,4092,4135,4089,4119,4105,4107,4119,4101,4121,4124,4078,4070,4099,0
1417.37,4090,4090,4135,4091,4118,4104,4105,4111,4097,4121,4123,4079,4068,4095,0
1417.378,4097,4094,4133,4091,4118,4103,4096,4102,4087,4121,4116,4076,4068,4091,0
1417.386,4108,4096,4134,4090,4119,4104,4095,4108,4092,4121,4113,4076,4075,4085,0
1417.394,4111,4095,4135,4091,4119,4105,4099,4120,4108,4121,4116,4077,4077,4076,0
1417.402,4106,4100,4135,4099,4117,4105,4103,4123,4111,4121,4115,4075,4072,4072,0
1417.409,4110,4107,4136,4107,4119,4108,4105,4112,4094,4121,4111,4076,4073,4076,0
1417.417,4120,4107,4135,4102,4121,4109,4105,4105,4086,4121,4112,4081,4076,4078,0
1417.425,4124,4106,4136,4100,4117,4112,4117,4114,4108,4121,4117,4087,4073,4081,0
1417.433,4123,4110,4138,4103,4117,4111,4118,4113,4111,4121,4115,4086,4069,4085,0
1417.441,4119,4107,4132,4095,4119,4099,4092,4091,4075,4121,4105,4073,4065,4074,0
1417.449,4119,4107,4129,4090,4117,4094,4086,4092,4069,4121,4108,4072,4067,4073,0
1417.457,4126,4116,4132,4098,4117,4106,4107,4115,4103,4121,4124,4089,4070,4093,0
1417.465,4127,4117,4132,4095,4122,4110,4112,4124,4115,4121,4128,4095,4068,4093,0
1417.473,4113,4105,4126,4083,4120,4105,4103,4118,4104,4121,4113,4082,4065,4074,0
1417.48,4103,4102,4126,4078,4112,4107,4105,4118,4107,4121,4104,4074,4065,4069,0
1417.488,4113,4108,4127,4078,4113,4110,4110,4125,4116,4121,4113,4080,4069,4079,0
1417.496,4118,4108,4127,4077,4121,4106,4108,4119,4110,4121,4115,4080,4070,4081,0
1417.504,4111,4103,4127,4075,4121,4105,4105,4107,4102,4121,4110,4075,4069,4079,0
1417.512,4117,4109,4129,4075,4115,4108,4108,4115,4112,4121,4114,4083,4073,4086,0
1417.52,4121,4112,4131,4077,4116,4105,4108,4121,4112,4121,4122,4092,4076,4095,0
1417.528,4109,4107,4130,4077,4119,4105,4106,4110,4101,4121,4122,4088,4072,4092,0
1417.536,4109,4111,4131,4076,4119,4117,4115,4117,4118,4121,4123,4087,4072,4088,0
1417.544,4126,4121,4136,4078,4114,4122,4120,4120,4122,4121,4128,4095,4077,4094,0
1417.551,4127,4116,4137,4075,4114,4111,4108,4093,4087,4121,4126,4092,4077,4093,0
1417.559,4118,4107,4132,4065,4119,4110,4104,4093,4085,4121,4120,4087,4073,4090,0
1417.567,4119,4108,4131,4061,4122,4123,4111,4116,4114,4121,4127,4094,4073,4096,0
1417.575,4118,4107,4132,4062,4120,4122,4109,4112,4112,4121,4132,4099,4076,4095,0
1417.583,4117,4109,4131,4063,4118,4111,4105,4106,4104,4121,4127,4098,4073,4095,0
1417.591,4122,4114,4128,4060,4118,4109,4105,4113,4111,4121,4122,4098,4066,4105,0
1417.599,4124,4112,4129,4057,4118,4114,4106,4119,4117,4121,4123,4098,4069,4109,0
1417.607,4118,4110,4129,4051,4117,4117,4112,4121,4122,4121,4128,4096,4079,4103,0
1417.614,4102,4103,4118,4038,4122,4107,4102,4104,4103,4121,4117,4083,4076,4088,0
1417.622,4096,4096,4110,4029,4122,4097,4087,4090,4083,4121,4106,4073,4071,4079,0
1417.63,4108,4103,4119,4035,4116,4109,4097,4111,4106,4121,4121,4086,4081,4091,0
1417.638,4119,4118,4130,4043,4113,4124,4117,4128,4129,4121,4143,4103,4088,4109,0
1417.646,4119,4121,4131,4045,4118,4124,4123,4123,4123,4121,4139,4103,4086,4106,0
1417.654,4116,4116,4130,4047,4118,4122,4122,4125,4125,4121,4134,4104,4089,4106,0
1417.662,4113,4112,4126,4038,4116,4120,4117,4131,4133,4121,4140,4110,4091,4110,0
1417.67,4107,4108,4120,4021,4116,4114,4110,4119,4125,4121,4131,4099,4083,4099,0
1417.677,4108,4108,4121,4020,4117,4115,4116,4116,4123,4121,4122,4092,4079,4092,0
1417.685,4112,4111,4123,4028,4119,4122,4125,4126,4134,4121,4130,4102,4083,4106,0
1417.693,4111,4111,4121,4022,4116,4120,4119,4112,4121,4121,4128,4104,4083,4109,0
1417.701,4109,4107,4118,4013,4114,4110,4106,4092,4095,4121,4122,4094,4082,4100,0
1417.709,4106,4104,4117,4013,4118,4105,4099,4097,4094,4121,4123,4089,4082,4101,0
1417.717,4103,4104,4117,4013,4120,4111,4102,4108,4104,4121,4123,4095,4086,4106,0
1417.725,4111,4106,4119,4015,4120,4121,4111,4111,4110,4121,4130,4103,4090,4108,0
1417.733,4124,4111,4122,4022,4119,4122,4113,4118,4118,4121,4140,4111,4091,4112,0
1417.74,4121,4112,4116,4021,4118,4116,4111,4120,4121,4121,4132,4105,4092,4113,0
1417.748,4109,4106,4102,4012,4116,4111,4107,4109,4109,4121,4116,4089,4088,4105,0
1417.756,4113,4106,4109,4013,4125,4111,4104,4103,4107,4121,4117,4093,4081,4103,0
1417.764,4127,4115,4111,4024,4118,4121,4114,4116,4121,4121,4131,4108,4083,4118,0
1417.772,4130,4119,4106,4022,4111,4129,4126,4127,4132,4121,4132,4110,4090,4125,0
1417.78,4121,4108,4112,4005,4122,4119,4116,4113,4123,4121,4114,4103,4088,4115,0
1417.788,4118,4106,4106,4000,4123,4112,4104,4100,4107,4121,4110,4099,4082,4108,0
1417.796,4124,4118,4103,4011,4119,4117,4110,4109,4108,4121,4119,4101,4084,4112,0
1417.804,4124,4121,4100,4015,4111,4115,4106,4114,4113,4121,4118,4099,4092,4111,0
1417.812,4122,4114,4109,4007,4115,4107,4096,4099,4097,4120,4116,4097,4087,4107,0
1417.819,4120,4114,4111,4008,4118,4106,4098,4094,4090,4119,4115,4098,4078,4108,0
1417.827,4110,4109,4112,4008,4126,4107,4102,4101,4104,4120,4104,4095,4082,4101,0
1417.835,4108,4102,4093,3993,4111,4107,4100,4108,4108,4120,4107,4089,4087,4099,0
1417.843,4124,4113,4095,3987,4109,4113,4106,4110,4109,4119,4121,4097,4085,4115,0
1417.851,4125,4119,4113,3991,4123,4118,4111,4113,4122,4119,4123,4108,4088,4125,0
1417.859,4111,4112,4108,3991,4123,4116,4108,4119,4125,4120,4121,4106,4092,4123,0
1417.867,4112,4116,4099,3986,4117,4118,4108,4126,4123,4120,4126,4103,4089,4123,0
1417.875,4120,4124,4104,3988,4121,4120,4109,4118,4120,4119,4126,4100,4087,4126,0
1417.882,4118,4121,4107,3995,4122,4113,4106,4100,4107,4120,4122,4099,4088,4122,0
1417.89,4119,4119,4108,3992,4115,4112,4106,4099,4107,4122,4122,4105,4084,4123,0
1417.898,4124,4122,4112,3981,4115,4122,4111,4114,4120,4123,4124,4107,4082,4127,0
1417.906,4117,4118,4108,3977,4120,4118,4110,4117,4117,4122,4121,4102,4086,4125,0
1417.914,4112,4115,4102,3984,4118,4108,4106,4115,4112,4121,4122,4103,4091,4121,0
1417.922,4120,4121,4102,3985,4115,4115,4109,4121,4120,4121,4128,4107,4088,4127,0
1417.93,4125,4124,4106,3984,4117,4118,4112,4118,4119,4120,4128,4108,4085,4137,0
1417.938,4123,4121,4106,3989,4118,4105,4104,4107,4105,4119,4126,4110,4091,4138,0
1417.945,4131,4127,4113,3992,4118,4106,4103,4104,4103,4120,4137,4116,4098,4140,0
1417.953,4139,4136,4118,3994,4119,4124,4117,4116,4119,4119,4147,4122,4101,4146,0
1417.961,4134,4132,4114,3997,4124,4130,4127,4123,4130,4119,4135,4122,4101,4146,0
1417.969,4125,4123,4111,3993,4123,4117,4115,4111,4116,4119,4125,4114,4097,4140,0
1417.977,4121,4125,4110,3989,4118,4111,4103,4100,4099,4120,4133,4110,4096,4138,0
1417.985,4126,4132,4114,3995,4117,4122,4114,4110,4113,4119,4136,4116,4098,4144,0
1417.993,4121,4123,4107,3993,4118,4122,4119,4115,4122,4119,4123,4108,4094,4142,0
1418.001,4098,4103,4091,3976,4117,4105,4101,4102,4103,4121,4111,4085,4089,4122,0
1418.008,4091,4102,4092,3969,4118,4102,4096,4101,4101,4122,4108,4083,4090,4113,0
1418.016,4109,4120,4104,3986,4117,4118,4114,4121,4123,4119,4117,4099,4092,4124,0
1418.024,4113,4121,4110,3997,4116,4133,4133,4131,4134,4119,4129,4108,4095,4134,0
1418.032,4089,4094,4096,3973,4117,4124,4120,4113,4117,4122,4109,4088,4086,4113,0
1418.04,4082,4089,4087,3963,4118,4101,4095,4101,4100,4121,4081,4069,4075,4092,0
1418.048,4122,4127,4105,4003,4116,4112,4105,4114,4111,4120,4101,4093,4085,4118,0
1418.056,4163,4160,4127,4034,4118,4137,4128,4115,4123,4122,4133,4127,4097,4161,0
1418.064,4163,4155,4117,4017,4118,4127,4119,4094,4106,4122,4128,4116,4089,4160,0
1418.072,4153,4145,4104,4002,4117,4110,4104,4093,4100,4121,4115,4099,4088,4138,0
1418.08,4161,4147,4114,4014,4119,4116,4116,4114,4123,4121,4118,4115,4100,4141,0
1418.087,4157,4143,4116,4011,4116,4113,4120,4112,4119,4122,4113,4117,4097,4146,0
1418.095,4139,4134,4101,3992,4113,4096,4098,4092,4096,4121,4100,4092,4087,4131,0
1418.103,4135,4130,4102,3986,4119,4092,4085,4085,4092,4121,4091,4083,4086,4119,0
1418.111,4139,4132,4109,3999,4120,4096,4097,4097,4104,4122,4096,4093,4095,4122,0
1418.119,4133,4134,4108,4007,4116,4096,4106,4114,4117,4121,4107,4099,4102,4125,0
1418.127,4124,4132,4102,3998,4118,4098,4103,4112,4117,4119,4101,4095,4102,4123,0
1418.135,4123,4124,4100,3987,4120,4100,4103,4097,4105,4120,4093,4093,4101,4119,0
1418.143,4112,4114,4093,3979,4118,4089,4094,4078,4085,4122,4091,4081,4097,4105,0
1418.15,4089,4102,4083,3970,4118,4077,4081,4075,4074,4121,4078,4064,4090,4090,0
1418.158,4089,4097,4082,3969,4118,4082,4087,4084,4086,4121,4073,4066,4089,4088,0
1418.166,4105,4103,4090,3979,4116,4091,4095,4081,4089,4122,4078,4073,4094,4090,0
1418.174,4106,4108,4096,3988,4119,4089,4092,4069,4073,4121,4076,4068,4097,4089,0
1418.182,4101,4107,4080,3983,4119,4091,4095,4077,4076,4120,4071,4064,4095,4090,0
1418.19,4097,4105,4061,3972,4118,4095,4100,4092,4093,4121,4075,4067,4095,4090,0
1418.198,4098,4106,4057,3977,4118,4094,4100,4094,4098,4120,4086,4068,4099,4092,0
1418.206,4108,4110,4063,3993,4118,4098,4110,4105,4110,4119,4096,4074,4107,4104,0
1418.213,4107,4107,4059,3986,4117,4098,4108,4102,4107,4121,4081,4071,4102,4100,0
1418.221,4089,4099,4052,3973,4118,4086,4087,4073,4074,4121,4059,4053,4089,4081,0
1418.229,4096,4102,4063,3991,4118,4097,4102,4087,4085,4120,4071,4057,4093,4091,0
1418.237,4109,4110,4074,4008,4118,4117,4128,4106,4113,4121,4086,4077,4104,4105,0
1418.245,4097,4105,4067,3992,4118,4102,4099,4079,4085,4122,4077,4076,4103,4094,0
1418.253,4089,4093,4059,3980,4119,4089,4081,4065,4066,4120,4072,4062,4095,4088,0
1418.261,4091,4089,4062,3986,4120,4093,4095,4073,4078,4121,4071,4054,4093,4092,0
1418.269,4097,4099,4063,3997,4120,4081,4079,4066,4068,4122,4070,4058,4101,4092,0
1418.276,4110,4117,4069,4010,4120,4072,4063,4073,4067,4121,4085,4074,4107,4102,0
1418.284,4115,4125,4073,4024,4117,4091,4088,4098,4092,4121,4097,4084,4108,4119,0
1418.292,4108,4123,4069,4032,4116,4099,4099,4102,4100,4120,4094,4081,4110,4121,0
1418.3,4109,4123,4067,4034,4117,4093,4092,4100,4099,4119,4095,4078,4119,4117,0
1418.308,4109,4120,4067,4027,4119,4098,4097,4101,4105,4120,4093,4076,4123,4110,0
1418.316,4103,4115,4060,4018,4117,4095,4100,4104,4105,4120,4087,4070,4122,4103,0
1418.324,4107,4117,4063,4020,4118,4092,4104,4113,4113,4119,4092,4075,4125,4114,0
1418.332,4112,4121,4067,4024,4120,4104,4111,4106,4118,4120,4098,4078,4125,4121,0
1418.339,4103,4118,4065,4018,4118,4107,4110,4099,4111,4120,4092,4073,4122,4103,0
1418.347,4091,4111,4062,4010,4117,4097,4105,4102,4107,4120,4085,4065,4123,4089,0
1418.355,4090,4110,4061,4013,4117,4096,4098,4094,4102,4120,4077,4061,4121,4092,0
1418.363,4095,4110,4062,4018,4115,4104,4098,4087,4098,4119,4072,4061,4112,4089,0
1418.371,4094,4111,4069,4016,4117,4107,4107,4100,4108,4121,4078,4064,4111,4087,0
1418.379,4095,4116,4074,4014,4120,4108,4110,4107,4118,4122,4088,4069,4114,4100,0
1418.387,4101,4119,4071,4017,4118,4110,4107,4100,4115,4121,4092,4071,4111,4102,0
1418.395,4105,4117,4068,4019,4116,4109,4108,4105,4116,4121,4092,4069,4106,4093,0
1418.403,4103,4117,4069,4020,4116,4108,4111,4111,4124,4121,4089,4068,4103,4093,0
1418.411,4100,4117,4070,4021,4118,4106,4110,4104,4123,4121,4082,4070,4102,4090,0
1418.418,4102,4115,4071,4028,4118,4106,4109,4103,4122,4120,4079,4071,4102,4079,0
1418.426,4106,4114,4076,4031,4120,4108,4110,4108,4123,4121,4084,4071,4100,4079,0
1418.434,4107,4112,4075,4024,4117,4108,4106,4099,4113,4120,4084,4070,4101,4080,0
1418.442,4109,4114,4074,4028,4117,4107,4099,4093,4106,4119,4084,4071,4108,4075,0
1418.45,4111,4118,4078,4035,4120,4108,4099,4105,4109,4120,4088,4071,4108,4077,0
1418.458,4107,4114,4078,4033,4120,4108,4102,4109,4111,4122,4089,4069,4103,4078,0
1418.466,4105,4112,4072,4028,4116,4108,4096,4097,4106,4122,4087,4066,4106,4074,0
1418.474,4107,4112,4074,4028,4116,4107,4094,4094,4103,4120,4087,4066,4108,4073,0
1418.481,4107,4110,4078,4030,4117,4105,4106,4107,4114,4119,4090,4071,4107,4076,0
1418.489,4106,4108,4078,4031,4118,4109,4113,4113,4126,4120,4091,4075,4108,4078,0
1418.497,4106,4109,4078,4026,4118,4112,4109,4111,4126,4119,4090,4074,4106,4079,0
1418.505,4105,4112,4081,4026,4120,4108,4105,4113,4125,4120,4095,4075,4098,4088,0
1418.513,4106,4116,4085,4038,4121,4116,4109,4118,4127,4121,4100,4083,4093,4095,0
1418.521,4111,4122,4090,4046,4120,4128,4116,4123,4130,4121,4100,4088,4093,4093,0
1418.529,4116,4122,4090,4042,4118,4122,4110,4112,4118,4121,4096,4084,4090,4089,0
1418.537,4122,4122,4088,4047,4117,4115,4104,4093,4099,4121,4093,4079,4090,4092,0
1418.544,4121,4125,4091,4061,4117,4122,4113,4092,4099,4121,4098,4083,4093,4094,0
1418.552,4111,4120,4089,4058,4116,4120,4113,4101,4109,4121,4100,4083,4089,4088,0
1418.56,4106,4116,4085,4044,4116,4108,4100,4102,4103,4121,4091,4075,4092,4083,0
1418.568,4109,4117,4085,4047,4116,4110,4099,4101,4098,4121,4089,4072,4104,4088,0
1418.576,4110,4115,4089,4054,4117,4112,4106,4107,4106,4121,4098,4076,4105,4093,0
1418.584,4110,4112,4097,4053,4125,4106,4109,4109,4109,4121,4094,4080,4097,4092,0
1418.592,4104,4107,4070,4050,4109,4107,4106,4105,4108,4121,4085,4070,4093,4090,0
1418.6,4097,4108,4064,4051,4109,4113,4102,4097,4105,4121,4090,4063,4092,4088,0
1418.607,4105,4117,4101,4057,4130,4118,4112,4102,4111,4121,4096,4077,4091,4095,0
1418.615,4111,4124,4104,4064,4129,4119,4119,4122,4131,4121,4095,4087,4092,4103,0
1418.623,4107,4120,4080,4065,4113,4122,4120,4131,4138,4121,4098,4081,4093,4101,0
1418.631,4099,4110,4082,4057,4119,4124,4121,4109,4114,4121,4097,4076,4093,4092,0
1418.639,4093,4108,4096,4048,4132,4114,4110,4077,4083,4121,4083,4075,4091,4083,0
1418.647,4098,4118,4072,4061,4108,4102,4087,4086,4089,4121,4090,4068,4089,4084,0
1418.655,4111,4128,4094,4075,4119,4101,4086,4108,4103,4121,4105,4079,4092,4094,0
1418.663,4108,4123,4104,4068,4125,4114,4103,4097,4097,4121,4101,4085,4092,4095,0
1418.671,4095,4115,4057,4064,4092,4125,4113,4094,4102,4121,4097,4067,4091,4089,0
1418.679,4094,4116,4068,4075,4099,4119,4110,4107,4111,4121,4094,4068,4093,4091,0
1418.686,4103,4122,4111,4080,4126,4107,4101,4102,4106,4121,4089,4081,4099,4094,0
1418.694,4111,4126,4113,4078,4124,4113,4108,4102,4114,4120,4094,4085,4095,4094,0
1418.702,4105,4123,4083,4074,4107,4115,4111,4112,4124,4119,4098,4074,4080,4091,0
1418.71,4099,4122,4098,4069,4125,4105,4092,4092,4092,4121,4086,4070,4082,4090,0
1418.718,4110,4131,4102,4075,4122,4112,4089,4083,4080,4122,4094,4075,4084,4103,0
1418.726,4126,4141,4100,4087,4115,4124,4116,4128,4133,4120,4112,4090,4053,4111,0
1418.734,4130,4143,4109,4094,4120,4125,4128,4156,4167,4121,4111,4099,4026,4106,0
1418.742,4125,4137,4101,4096,4119,4121,4111,4108,4123,4122,4106,4093,4027,4106,0
1418.749,4119,4130,4097,4086,4119,4112,4101,4061,4079,4121,4106,4087,4029,4106,0
1418.757,4121,4126,4096,4071,4117,4109,4105,4078,4093,4119,4107,4087,4018,4101,0
1418.765,4123,4123,4096,4064,4117,4116,4105,4102,4108,4120,4104,4089,4007,4099,0
1418.773,4123,4124,4097,4070,4118,4122,4110,4106,4114,4121,4108,4092,4001,4104,0
1418.781,4125,4134,4103,4082,4117,4128,4126,4127,4138,4120,4118,4101,4008,4112,0
1418.789,4122,4138,4103,4087,4117,4135,4134,4140,4151,4121,4121,4107,4016,4113,0
1418.797,4115,4134,4095,4081,4116,4139,4135,4128,4143,4121,4119,4104,4011,4110,0
1418.805,4118,4138,4098,4083,4118,4139,4137,4123,4144,4120,4123,4109,4013,4112,0
1418.812,4124,4143,4103,4093,4120,4134,4128,4122,4134,4121,4120,4109,4019,4111,0
1418.82,4124,4140,4101,4096,4121,4132,4119,4115,4114,4121,4109,4101,4019,4109,0
1418.828,4129,4139,4102,4091,4119,4135,4121,4113,4115,4121,4113,4105,4021,4119,0
1418.836,4131,4138,4104,4086,4118,4131,4123,4117,4126,4120,4123,4113,4027,4129,0
1418.844,4130,4138,4104,4085,4119,4125,4121,4122,4132,4122,4124,4113,4032,4124,0
1418.852,4128,4138,4103,4087,4118,4127,4125,4124,4136,4123,4122,4112,4029,4120,0
1418.86,4122,4133,4103,4085,4117,4129,4124,4125,4134,4122,4125,4110,4024,4116,0
1418.868,4117,4131,4098,4082,4117,4125,4120,4125,4127,4122,4121,4102,4026,4108,0
1418.875,4122,4136,4099,4090,4119,4123,4120,4123,4125,4123,4114,4103,4030,4111,0
1418.883,4135,4146,4105,4104,4119,4128,4125,4127,4128,4122,4126,4115,4035,4129,0
1418.891,4140,4155,4110,4107,4119,4134,4127,4133,4131,4123,4142,4120,4037,4140,0
1418.899,4131,4151,4105,4095,4118,4130,4124,4123,4125,4122,4132,4113,4036,4131,0
1418.907,4120,4139,4093,4086,4118,4124,4122,4112,4114,4121,4106,4099,4035,4112,0
1418.915,4118,4136,4089,4089,4118,4128,4122,4120,4123,4122,4106,4095,4039,4105,0
1418.923,4124,4140,4098,4094,4118,4136,4127,4132,4147,4122,4125,4106,4044,4118,0
1418.931,4129,4142,4101,4093,4117,4140,4139,4140,4158,4121,4132,4116,4048,4132,0
1418.938,4126,4140,4098,4094,4118,4139,4138,4139,4149,4120,4125,4114,4049,4129,0
1418.946,4118,4136,4099,4093,4117,4135,4128,4131,4139,4120,4124,4107,4046,4118,0
1418.954,4121,4136,4106,4094,4116,4137,4135,4144,4152,4120,4133,4111,4047,4127,0
1418.962,4128,4138,4107,4099,4117,4144,4146,4155,4161,4121,4133,4117,4055,4141,0
1418.97,4126,4138,4104,4106,4116,4142,4135,4129,4134,4121,4124,4111,4058,4135,0
1418.978,4120,4139,4106,4109,4118,4136,4123,4107,4114,4119,4117,4100,4049,4122,0
1418.986,4120,4139,4109,4107,4121,4135,4122,4112,4119,4122,4110,4095,4045,4120,0
1418.994,4123,4137,4102,4114,4115,4136,4123,4120,4125,4122,4109,4094,4056,4131,0
1419.002,4127,4141,4117,4131,4125,4137,4133,4123,4130,4120,4121,4103,4060,4139,0
1419.01,4126,4142,4122,4139,4129,4140,4140,4126,4139,4120,4127,4108,4058,4139,0
1419.017,4122,4138,4105,4135,4119,4138,4134,4120,4137,4122,4119,4101,4067,4135,0
1419.025,4127,4140,4100,4135,4110,4135,4135,4124,4138,4121,4120,4101,4077,4136,0
1419.033,4132,4145,4115,4142,4120,4141,4141,4139,4149,4121,4127,4113,4077,4144,0
1419.041,4124,4133,4111,4137,4124,4139,4134,4125,4133,4122,4123,4111,4072,4138,0
1419.049,4121,4128,4100,4136,4118,4135,4132,4120,4126,4121,4124,4102,4075,4134,0
1419.057,4128,4137,4111,4151,4122,4141,4142,4148,4153,4120,4135,4109,4078,4140,0
1419.065,4118,4130,4104,4148,4120,4143,4136,4150,4158,4120,4129,4108,4075,4136,0
1419.073,4107,4121,4105,4135,4122,4140,4131,4125,4135,4121,4117,4103,4072,4123,0
1419.08,4117,4132,4107,4146,4119,4144,4140,4127,4136,4121,4126,4105,4073,4130,0
1419.088,4133,4147,4111,4165,4123,4144,4139,4127,4140,4121,4132,4111,4076,4147,0
1419.096,4141,4148,4114,4170,4123,4140,4136,4117,4133,4121,4132,4117,4077,4156,0
1419.104,4143,4146,4118,4168,4119,4146,4144,4123,4138,4121,4141,4120,4077,4157,0
1419.112,4133,4138,4112,4159,4120,4136,4131,4121,4133,4121,4135,4111,4074,4144,0
1419.12,4126,4134,4103,4148,4118,4116,4108,4110,4116,4121,4119,4101,4073,4138,0
1419.128,4137,4140,4112,4151,4116,4126,4118,4121,4123,4121,4126,4112,4080,4150,0
1419.136,4145,4141,4117,4156,4113,4144,4137,4137,4143,4120,4142,4119,4084,4155,0
1419.143,4147,4140,4117,4157,4116,4141,4139,4144,4156,4121,4142,4119,4083,4159,0
1419.151,4150,4142,4120,4157,4118,4136,4138,4137,4153,4121,4140,4123,4082,4165,0
1419.159,4148,4143,4122,4155,4120,4139,4138,4114,4133,4120,4137,4116,4077,4157,0
1419.167,4139,4137,4122,4154,4121,4135,4128,4103,4117,4120,4128,4105,4069,4148,0
1419.175,4138,4137,4118,4154,4118,4133,4122,4109,4116,4121,4123,4105,4068,4155,0
1419.183,4138,4140,4118,4152,4118,4137,4124,4109,4119,4121,4122,4108,4070,4155,0
1419.191,4138,4137,4117,4149,4119,4135,4125,4106,4119,4120,4118,4102,4068,4148,0
1419.199,4147,4142,4122,4157,4120,4137,4130,4112,4124,4121,4128,4109,4074,4164,0
1419.206,4165,4155,4128,4170,4120,4142,4140,4123,4137,4121,4149,4125,4086,4187,0
1419.214,4173,4159,4128,4173,4120,4142,4141,4134,4144,4121,4159,4129,4088,4188,0
1419.222,4163,4149,4124,4172,4121,4140,4136,4133,4142,4121,4157,4126,4081,4172,0
1419.23,4148,4142,4121,4167,4119,4137,4135,4132,4148,4121,4152,4122,4076,4167,0
1419.238,4147,4147,4123,4158,4119,4137,4139,4131,4152,4121,4140,4119,4075,4169,0
1419.246,4146,4147,4117,4154,4119,4140,4138,4120,4139,4121,4125,4110,4075,4158,0
1419.254,4133,4137,4109,4151,4119,4134,4130,4113,4125,4121,4117,4099,4073,4139,0
1419.262,4123,4134,4106,4142,4120,4124,4123,4119,4124,4121,4118,4093,4074,4137,0
1419.27,4129,4138,4108,4145,4120,4123,4124,4124,4133,4121,4120,4100,4075,4151,0
1419.278,4137,4139,4108,4152,4117,4126,4125,4124,4136,4120,4127,4106,4079,4155,0
1419.285,4138,4137,4107,4152,4117,4125,4124,4123,4127,4119,4137,4106,4083,4151,0
1419.293,4140,4139,4108,4155,4119,4127,4124,4119,4123,4120,4141,4111,4087,4155,0
1419.301,4142,4140,4109,4151,4120,4131,4125,4120,4129,4120,4139,4115,4091,4164,0
1419.309,4133,4133,4108,4137,4120,4128,4124,4125,4129,4119,4136,4110,4088,4159,0
1419.317,4129,4125,4108,4135,4121,4124,4122,4116,4124,4120,4131,4103,4078,4152,0
1419.325,4133,4127,4102,4140,4119,4124,4121,4106,4121,4120,4123,4100,4074,4153,0
1419.333,4133,4127,4097,4137,4118,4124,4120,4114,4121,4120,4124,4101,4077,4151,0
1419.341,4131,4122,4097,4134,4120,4124,4121,4133,4133,4120,4131,4106,4077,4143,0
1419.348,4130,4126,4097,4135,4119,4126,4122,4134,4139,4120,4131,4106,4073,4140,0
1419.356,4137,4133,4098,4137,4119,4128,4123,4123,4127,4120,4126,4099,4076,4142,0
1419.364,4145,4135,4098,4140,4122,4124,4123,4120,4123,4120,4123,4096,4078,4137,0
1419.372,4142,4134,4093,4139,4122,4120,4123,4123,4134,4120,4127,4098,4077,4129,0
1419.38,4139,4132,4093,4137,4119,4129,4128,4134,4143,4120,4130,4099,4079,4125,0
1419.388,4149,4129,4097,4137,4122,4138,4128,4139,4139,4120,4124,4098,4074,4122,0
1419.396,4154,4126,4094,4138,4123,4128,4116,4131,4130,4120,4121,4096,4060,4121,0
1419.404,4149,4123,4092,4138,4121,4113,4109,4126,4127,4120,4122,4095,4054,4120,0
1419.411,4152,4123,4094,4138,4120,4116,4118,4125,4126,4120,4123,4096,4059,4114,0
1419.419,4157,4130,4095,4139,4121,4125,4125,4127,4124,4120,4131,4103,4057,4115,0
1419.427,4156,4137,4096,4139,4122,4125,4122,4131,4127,4120,4134,4109,4059,4123,0
1419.435,4155,4137,4095,4143,4123,4124,4120,4130,4128,4120,4127,4107,4074,4127,0
1419.443,4156,4135,4091,4153,4119,4124,4122,4115,4109,4120,4122,4102,4080,4124,0
1419.451,4156,4136,4087,4150,4118,4121,4119,4108,4100,4120,4121,4101,4075,4122,0
1419.459,4154,4137,4086,4141,4121,4124,4120,4125,4125,4120,4124,4104,4075,4132,0
1419.467,4156,4137,4090,4150,4121,4136,4136,4142,4147,4120,4137,4111,4081,4144,0
1419.474,4157,4140,4091,4160,4116,4136,4142,4135,4141,4120,4145,4113,4078,4135,0
1419.482,4154,4141,4089,4156,4119,4121,4127,4119,4125,4120,4139,4112,4074,4122,0
1419.49,4154,4140,4089,4152,4121,4121,4119,4122,4121,4120,4139,4115,4082,4133,0
1419.498,4157,4139,4089,4152,4121,4132,4127,4132,4126,4120,4141,4119,4088,4144,0
1419.506,4157,4140,4088,4154,4120,4131,4128,4137,4130,4120,4141,4122,4084,4141,0
1419.514,4154,4140,4089,4150,4118,4124,4122,4137,4125,4120,4144,4123,4083,4143,0
1419.522,4152,4135,4087,4140,4117,4125,4119,4133,4124,4120,4142,4121,4086,4146,0
1419.53,4150,4136,4090,4145,4122,4136,4128,4139,4141,4120,4138,4123,4086,4141,0
1419.538,4147,4142,4092,4155,4122,4140,4139,4144,4148,4120,4140,4126,4084,4143,0
1419.545,4140,4133,4081,4140,4117,4127,4130,4130,4129,4120,4135,4112,4076,4142,0
1419.553,4133,4124,4072,4126,4117,4118,4118,4118,4111,4120,4123,4095,4071,4127,0
1419.561,4137,4136,4079,4137,4121,4122,4120,4122,4114,4120,4123,4100,4085,4125,0
1419.569,4142,4143,4081,4144,4121,4125,4118,4124,4117,4120,4126,4110,4091,4137,0
1419.577,4136,4137,4071,4138,4120,4121,4109,4118,4111,4120,4121,4105,4079,4135,0
1419.585,4124,4135,4067,4134,4121,4118,4103,4113,4101,4120,4116,4095,4081,4118,0
1419.593,4124,4138,4069,4137,4122,4122,4106,4115,4102,4120,4120,4099,4093,4118,0
1419.601,4133,4140,4070,4140,4119,4133,4118,4128,4116,4120,4126,4109,4093,4133,0
1419.609,4129,4138,4069,4138,4119,4134,4125,4138,4127,4120,4127,4108,4087,4134,0
1419.616,4118,4127,4066,4135,4122,4121,4121,4136,4127,4120,4125,4103,4087,4124,0
1419.624,4119,4123,4065,4135,4121,4122,4120,4128,4120,4120,4122,4100,4089,4121,0
1419.632,4127,4136,4070,4141,4120,4136,4131,4127,4122,4120,4121,4102,4091,4132,0
1419.64,4128,4141,4075,4147,4122,4142,4141,4140,4139,4120,4127,4107,4093,4142,0
1419.648,4123,4137,4074,4144,4122,4136,4133,4138,4137,4120,4129,4107,4094,4138,0
1419.656,4124,4137,4073,4138,4119,4127,4117,4122,4114,4120,4122,4104,4095,4133,0
1419.664,4130,4138,4072,4138,4119,4128,4118,4130,4118,4120,4126,4105,4092,4136,0
1419.672,4138,4144,4072,4145,4118,4139,4128,4147,4134,4120,4141,4110,4093,4141,0
1419.679,4143,4154,4077,4153,4120,4143,4126,4130,4116,4120,4143,4113,4095,4140,0
1419.687,4142,4153,4077,4157,4120,4141,4128,4119,4109,4120,4134,4112,4094,4139,0
1419.695,4139,4141,4069,4149,4121,4144,4141,4137,4132,4120,4134,4112,4092,4140,0
1419.703,4137,4136,4060,4139,4120,4144,4138,4134,4131,4120,4143,4110,4092,4140,0
1419.711,4129,4138,4053,4136,4119,4131,4119,4117,4112,4120,4137,4101,4093,4131,0
1419.719,4123,4133,4048,4135,4120,4121,4111,4123,4111,4120,4118,4096,4090,4121,0
1419.727,4135,4139,4056,4143,4122,4134,4123,4140,4127,4120,4122,4110,4094,4135,0
1419.735,4154,4155,4063,4154,4121,4151,4141,4157,4152,4120,4146,4128,4107,4156,0
1419.742,4151,4153,4057,4151,4120,4144,4137,4160,4158,4120,4149,4124,4107,4157,0
1419.75,4140,4144,4057,4143,4122,4134,4121,4142,4134,4120,4137,4113,4098,4149,0
1419.758,4140,4151,4062,4149,4120,4142,4130,4140,4130,4120,4138,4118,4101,4153,0
1419.766,4141,4153,4058,4150,4119,4145,4144,4148,4139,4120,4141,4124,4107,4152,0
1419.774,4137,4146,4053,4140,4119,4139,4139,4127,4120,4120,4138,4118,4106,4147,0
1419.782,4133,4146,4059,4141,4119,4141,4137,4119,4116,4120,4137,4116,4106,4146,0
1419.79,4127,4142,4058,4139,4119,4144,4146,4153,4146,4120,4137,4120,4100,4142,0
1419.798,4117,4129,4050,4129,4119,4140,4144,4158,4148,4120,4142,4119,4092,4140,0
1419.805,4108,4123,4043,4119,4120,4123,4121,4122,4112,4120,4139,4108,4089,4135,0
1419.813,4101,4121,4039,4110,4120,4110,4103,4112,4103,4120,4125,4100,4090,4124,0
1419.821,4108,4120,4041,4112,4119,4123,4122,4130,4125,4120,4127,4104,4091,4127,0
1419.829,4120,4125,4049,4120,4120,4139,4140,4136,4131,4120,4139,4112,4093,4144,0
1419.837,4123,4133,4051,4130,4121,4138,4130,4133,4120,4120,4138,4118,4093,4152,0
1419.845,4124,4139,4052,4136,4121,4136,4130,4138,4123,4120,4137,4123,4089,4154,0
1419.853,4123,4136,4052,4128,4121,4133,4138,4132,4120,4120,4135,4118,4082,4154,0
1419.861,4124,4135,4053,4125,4122,4132,4134,4123,4107,4120,4125,4105,4081,4153,0
1419.868,4129,4143,4058,4139,4121,4141,4139,4139,4124,4120,4134,4109,4089,4153,0
1419.876,4123,4137,4057,4133,4121,4145,4145,4159,4147,4120,4142,4112,4089,4145,0
1419.884,4115,4126,4053,4117,4121,4140,4143,4151,4142,4120,4126,4104,4090,4135,0
1419.892,4120,4128,4055,4125,4119,4140,4147,4139,4137,4120,4119,4102,4103,4138,0
1419.9,4124,4134,4056,4129,4119,4140,4145,4144,4143,4120,4127,4107,4111,4142,0
1419.908,4122,4136,4057,4121,4120,4139,4140,4143,4141,4120,4128,4111,4111,4143,0
1419.916,4120,4133,4057,4124,4119,4140,4140,4123,4120,4120,4123,4105,4113,4140,0
1419.924,4111,4122,4054,4122,4119,4125,4129,4103,4098,4120,4118,4091,4110,4134,0
1419.931,4112,4123,4056,4124,4122,4119,4121,4111,4098,4120,4125,4097,4106,4140,0
1419.939,4124,4133,4061,4135,4121,4131,4132,4128,4112,4120,4134,4113,4113,4154,0
1419.947,4129,4132,4066,4146,4120,4135,4139,4127,4119,4120,4129,4111,4117,4154,0
1419.955,4129,4131,4068,4153,4123,4133,4139,4133,4124,4120,4131,4109,4115,4150,0
1419.963,4128,4134,4066,4146,4121,4136,4141,4147,4131,4120,4142,4117,4119,4153,0
1419.971,4123,4126,4061,4127,4117,4133,4137,4143,4134,4120,4137,4115,4123,4157,0
1419.979,4119,4120,4060,4119,4117,4126,4134,4135,4137,4120,4132,4106,4118,4149,0
1419.987,4121,4122,4059,4125,4121,4125,4136,4141,4137,4120,4136,4105,4109,4142,0
1419.994,4119,4117,4056,4122,4116,4124,4128,4141,4127,4120,4128,4103,4107,4146,0
1420.002,4119,4114,4063,4115,4115,4120,4119,4133,4118,4120,4124,4107,4107,4154,0
1420.01,4129,4123,4075,4127,4118,4125,4132,4145,4133,4120,4142,4120,4107,4161,0
1420.018,4139,4130,4063,4147,4110,4129,4143,4164,4152,4120,4157,4125,4111,4166,0
1420.026,4138,4129,4088,4146,4131,4127,4138,4146,4135,4120,4144,4127,4112,4163,0
1420.034,4129,4124,4104,4133,4139,4123,4134,4121,4112,4120,4130,4122,4106,4155,0
1420.042,4132,4124,4076,4137,4116,4124,4138,4130,4123,4120,4146,4117,4108,4157,0
1420.05,4141,4123,4060,4139,4106,4131,4140,4147,4141,4120,4161,4120,4120,4160,0
1420.057,4136,4121,4080,4125,4123,4131,4138,4145,4136,4120,4138,4116,4123,4153,0
1420.065,4128,4119,4078,4128,4121,4127,4137,4141,4130,4120,4118,4104,4118,4149,0
1420.073,4132,4119,4068,4139,4114,4127,4137,4143,4134,4120,4129,4104,4119,4151,0
1420.081,4139,4120,4083,4134,4124,4126,4139,4142,4136,4120,4137,4115,4116,4153,0
1420.089,4144,4122,4080,4130,4117,4130,4139,4139,4135,4120,4129,4114,4109,4154,0
1420.097,4148,4123,4079,4139,4116,4136,4139,4139,4134,4120,4123,4110,4107,4152,0
1420.105,4150,4124,4080,4143,4119,4131,4139,4142,4139,4120,4126,4110,4111,4154,0
1420.113,4157,4131,4081,4143,4120,4125,4137,4141,4138,4120,4129,4111,4117,4161,0
1420.12,4169,4137,4086,4149,4119,4134,4145,4142,4139,4120,4131,4116,4122,4169,0
1420.128,4181,4145,4094,4163,4117,4143,4160,4153,4150,4120,4136,4126,4123,4176,0
1420.136,4197,4157,4103,4178,4118,4142,4160,4158,4156,4120,4141,4131,4123,4182,0
1420.144,4205,4158,4095,4175,4118,4133,4143,4158,4145,4120,4135,4122,4122,4174,0
1420.152,4204,4152,4097,4167,4122,4127,4137,4151,4131,4120,4124,4116,4123,4157,0
1420.16,4198,4154,4102,4171,4117,4133,4145,4142,4129,4120,4122,4115,4123,4154,0
1420.168,4188,4151,4098,4169,4117,4138,4141,4140,4127,4120,4123,4107,4122,4157,0
1420.176,4184,4139,4094,4158,4120,4137,4136,4135,4115,4119,4120,4104,4121,4155,0
1420.183,4181,4136,4099,4153,4121,4135,4140,4115,4103,4120,4122,4110,4120,4153,0
1420.191,4172,4139,4099,4156,4121,4128,4134,4110,4103,4120,4125,4116,4119,4155,0
1420.199,4163,4135,4093,4159,4118,4121,4122,4121,4108,4119,4121,4113,4124,4155,0
1420.207,4151,4122,4091,4145,4115,4118,4117,4120,4101,4120,4112,4106,4126,4150,0
1420.215,4143,4117,4087,4134,4116,4118,4120,4125,4106,4122,4117,4108,4121,4150,0
1420.223,4157,4131,4099,4150,4122,4122,4130,4143,4131,4122,4125,4121,4128,4156,0
1420.231,4163,4135,4100,4159,4118,4127,4142,4152,4144,4120,4124,4118,4139,4158,0
1420.239,4150,4124,4092,4139,4119,4121,4135,4133,4122,4121,4116,4106,4131,4150,0
1420.247,4157,4130,4096,4140,4124,4122,4133,4134,4122,4121,4117,4110,4126,4149,0
1420.255,4181,4149,4112,4171,4120,4139,4156,4170,4163,4120,4133,4128,4137,4165,0
1420.262,4189,4149,4113,4178,4118,4145,4159,4164,4157,4120,4144,4131,4140,4172,0
1420.27,4180,4137,4100,4155,4120,4128,4130,4115,4106,4120,4133,4119,4133,4158,0
1420.278,4172,4136,4097,4144,4118,4116,4117,4108,4094,4121,4121,4109,4131,4141,0
1420.286,4171,4134,4099,4153,4120,4120,4124,4128,4111,4120,4118,4107,4126,4133,0
1420.294,4170,4125,4095,4154,4122,4125,4127,4124,4111,4120,4111,4103,4119,4124,0
1420.302,4168,4122,4091,4142,4121,4126,4126,4124,4114,4121,4104,4098,4119,4115,0
1420.31,4172,4124,4092,4142,4118,4126,4128,4132,4118,4120,4104,4097,4123,4110,0
1420.318,4174,4125,4093,4144,4121,4125,4125,4125,4109,4118,4109,4101,4123,4107,0
1420.325,4170,4122,4093,4138,4123,4124,4121,4120,4102,4120,4107,4106,4114,4106,3
1420.333,4171,4122,4093,4137,4121,4118,4117,4124,4107,4121,4099,4106,4109,4109,0
1420.341,4170,4123,4094,4142,4118,4118,4116,4127,4110,4120,4098,4107,4118,4110,0
1420.349,4157,4120,4097,4141,4118,4122,4120,4126,4109,4119,4105,4105,4117,4106,0
1420.357,4148,4121,4102,4143,4121,4124,4124,4128,4108,4120,4103,4104,4107,4103,0
1420.365,4153,4127,4105,4152,4121,4133,4134,4137,4119,4120,4110,4112,4113,4106,0
1420.373,4157,4127,4108,4156,4119,4146,4147,4144,4133,4119,4124,4121,4120,4111,0
1420.381,4148,4122,4102,4148,4119,4139,4135,4129,4119,4120,4111,4111,4110,4107,0
1420.388,4137,4121,4092,4138,4120,4124,4114,4106,4093,4120,4095,4102,4103,4101,0
1420.396,4137,4122,4096,4139,4120,4126,4117,4110,4096,4120,4105,4108,4110,4106,0
1420.404,4140,4124,4105,4147,4119,4128,4129,4127,4111,4120,4115,4111,4116,4110,0
1420.412,4132,4123,4096,4141,4119,4121,4120,4126,4106,4120,4107,4103,4112,4101,0
1420.42,4122,4113,4087,4127,4120,4119,4111,4119,4101,4120,4103,4097,4112,4088,0
1420.428,4121,4111,4096,4132,4121,4128,4125,4136,4121,4120,4108,4101,4117,4091,0
1420.436,4124,4122,4103,4142,4119,4132,4141,4149,4134,4120,4109,4109,4113,4104,0
1420.444,4125,4125,4098,4142,4119,4129,4138,4140,4122,4120,4111,4110,4105,4106,0
1420.451,4116,4114,4094,4137,4119,4124,4129,4133,4119,4120,4109,4105,4104,4095,0
1420.459,4109,4107,4097,4133,4120,4128,4136,4151,4142,4120,4108,4108,4103,4090,0
1420.467,4112,4106,4096,4129,4120,4131,4140,4154,4140,4120,4106,4110,4097,4091,0
1420.475,4119,4109,4095,4137,4119,4121,4123,4115,4094,4120,4104,4107,4097,4091,0
1420.483,4126,4123,4104,4158,4118,4125,4123,4111,4090,4120,4116,4112,4102,4102,0
1420.491,4126,4127,4104,4155,4121,4135,4134,4141,4121,4120,4120,4116,4101,4110,0
1420.499,4121,4119,4096,4137,4121,4128,4127,4136,4114,4120,4108,4108,4097,4104,0
1420.507,4125,4121,4104,4142,4119,4125,4128,4125,4104,4120,4114,4112,4099,4107,0
1420.515,4131,4127,4113,4151,4119,4133,4142,4142,4122,4120,4124,4122,4105,4118,0
1420.523,4125,4116,4102,4138,4123,4126,4129,4139,4120,4119,4112,4113,4106,4110,0
1420.53,4121,4108,4095,4134,4123,4118,4121,4133,4113,4119,4107,4105,4104,4103,0
1420.538,4130,4121,4106,4150,4120,4135,4149,4154,4137,4120,4118,4115,4104,4117,0
1420.546,4126,4119,4102,4146,4121,4139,4151,4151,4138,4119,4106,4113,4097,4120,0
1420.554,4111,4106,4093,4135,4119,4121,4122,4126,4110,4119,4097,4099,4091,4109,0
1420.562,4108,4112,4099,4142,4115,4118,4117,4119,4097,4120,4101,4097,4091,4104,0
1420.57,4111,4113,4101,4142,4118,4127,4127,4109,4086,4122,4093,4093,4090,4094,0
1420.578,4108,4106,4096,4135,4122,4122,4122,4100,4077,4121,4096,4085,4094,4086,0
1420.586,4107,4119,4102,4149,4121,4118,4117,4112,4090,4120,4111,4091,4105,4097,0
1420.593,4110,4128,4105,4157,4120,4126,4122,4127,4107,4120,4104,4096,4109,4101,0
1420.601,4107,4108,4095,4141,4120,4124,4125,4129,4111,4121,4089,4086,4103,4087,0
1420.609,4098,4103,4094,4136,4118,4118,4128,4137,4120,4121,4096,4081,4105,4086,0
1420.617,4091,4110,4100,4143,4115,4122,4128,4141,4121,4121,4098,4078,4108,4091,0
1420.625,4090,4103,4098,4137,4118,4124,4126,4133,4108,4121,4089,4073,4098,4082,0
1420.633,4101,4106,4103,4137,4119,4122,4132,4136,4114,4121,4099,4086,4094,4089,0
1420.641,4118,4125,4113,4148,4116,4127,4142,4141,4132,4121,4116,4109,4104,4110,0
1420.649,4120,4120,4112,4144,4115,4122,4134,4126,4121,4121,4112,4108,4105,4111,0
1420.656,4111,4106,4107,4140,4118,4110,4118,4111,4103,4121,4104,4096,4099,4105,0
1420.664,4122,4124,4115,4152,4120,4122,4132,4131,4124,4121,4121,4108,4103,4121,0
1420.672,4142,4142,4126,4168,4118,4136,4149,4152,4147,4121,4142,4123,4109,4140,0
1420.68,4142,4132,4126,4174,4117,4131,4143,4141,4140,4121,4143,4118,4107,4142,0
1420.688,4127,4122,4123,4165,4114,4135,4148,4138,4138,4121,4134,4114,4104,4137,0
1420.696,4117,4123,4121,4151,4114,4145,4159,4156,4147,4121,4124,4113,4104,4131,0
1420.704,4112,4122,4118,4149,4120,4140,4145,4159,4142,4121,4127,4108,4106,4126,0
1420.712,4112,4119,4118,4155,4123,4136,4137,4156,4140,4121,4139,4111,4106,4132,0
1420.719,4116,4124,4124,4157,4119,4136,4146,4161,4144,4121,4143,4119,4106,4137,0
1420.727,4116,4125,4122,4159,4117,4121,4138,4153,4134,4121,4128,4112,4111,4132,0
1420.735,4108,4118,4115,4154,4120,4115,4125,4142,4124,4121,4114,4100,4113,4121,0
1420.743,4097,4107,4112,4139,4120,4115,4118,4137,4113,4121,4106,4094,4108,4111,0
1420.751,4091,4103,4107,4131,4118,4108,4113,4133,4101,4121,4104,4086,4104,4104,0
1420.759,4087,4106,4104,4133,4118,4110,4119,4148,4117,4121,4105,4081,4105,4104,0
1420.767,4091,4112,4111,4138,4117,4122,4126,4150,4128,4121,4106,4086,4106,4113,0
1420.775,4106,4125,4123,4153,4117,4128,4125,4124,4102,4121,4117,4099,4115,4133,0
1420.782,4112,4126,4122,4159,4114,4122,4121,4113,4085,4121,4130,4104,4120,4141,0
1420.79,4094,4108,4110,4139,4117,4108,4111,4119,4091,4121,4122,4092,4108,4121,0
1420.798,4082,4107,4110,4129,4121,4102,4108,4117,4093,4121,4110,4086,4101,4112,0
1420.806,4096,4124,4123,4146,4117,4111,4120,4124,4105,4121,4119,4101,4110,4129,0
1420.814,4111,4127,4126,4159,4116,4123,4131,4142,4126,4121,4126,4109,4113,4140,0
1420.822,4112,4119,4124,4153,4121,4124,4129,4141,4128,4121,4122,4105,4109,4139,0
1420.83,4111,4120,4124,4143,4120,4122,4126,4139,4124,4121,4122,4107,4108,4139,0
1420.838,4109,4115,4120,4136,4120,4118,4121,4142,4125,4121,4119,4104,4105,4132,0
1420.846,4105,4110,4115,4133,4123,4118,4119,4136,4119,4121,4111,4098,4100,4124,0
1420.854,4105,4118,4123,4138,4120,4119,4123,4135,4118,4120,4111,4102,4087,4128,0
1420.861,4108,4120,4126,4143,4118,4116,4123,4140,4119,4121,4114,4102,4057,4129,0
1420.869,4108,4111,4120,4141,4120,4118,4122,4135,4115,4120,4108,4092,4038,4121,0
1420.877,4106,4111,4121,4135,4117,4121,4120,4122,4108,4118,4104,4088,4046,4118,0
1420.885,4106,4121,4127,4139,4118,4122,4124,4131,4118,4119,4117,4092,4053,4122,0
1420.893,4112,4125,4131,4145,4121,4128,4141,4155,4144,4121,4120,4095,4052,4127,0
1420.901,4110,4116,4128,4133,4118,4127,4135,4140,4127,4121,4100,4090,4057,4122,0
1420.909,4094,4107,4122,4129,4118,4110,4106,4096,4074,4119,4088,4080,4066,4108,0
1420.917,4087,4108,4119,4136,4121,4101,4095,4089,4065,4119,4093,4076,4073,4103,0
1420.924,4093,4108,4120,4129,4121,4106,4108,4114,4092,4120,4095,4078,4074,4113,0
1420.932,4098,4109,4120,4118,4118,4113,4116,4121,4097,4119,4099,4084,4073,4122,0
1420.94,4099,4120,4122,4127,4115,4118,4121,4119,4100,4119,4112,4093,4077,4125,0
1420.948,4097,4118,4120,4137,4114,4113,4122,4124,4110,4120,4112,4087,4076,4122,0
1420.956,4091,4106,4116,4135,4121,4106,4119,4123,4106,4120,4103,4077,4073,4117,0
1420.964,4106,4115,4123,4140,4121,4120,4131,4131,4115,4120,4109,4089,4083,4126,0
1420.972,4125,4126,4132,4141,4115,4131,4143,4143,4132,4120,4121,4101,4093,4134,0
1420.98,4118,4116,4125,4128,4116,4123,4132,4141,4126,4120,4122,4094,4093,4126,0
1420.987,4103,4107,4117,4119,4119,4120,4122,4134,4117,4120,4113,4088,4090,4118,0
1420.995,4101,4111,4122,4125,4118,4121,4124,4141,4126,4120,4109,4094,4093,4120,0
1421.003,4112,4122,4131,4141,4118,4126,4129,4147,4133,4120,4121,4107,4104,4131,3
1421.011,4122,4128,4130,4143,4118,4135,4128,4126,4115,4120,4128,4108,4117,4139,0
1421.019,4111,4113,4121,4125,4119,4129,4117,4102,4089,4119,4112,4091,4122,4127,0
1421.027,4095,4102,4121,4122,4122,4118,4109,4107,4089,4120,4100,4081,4121,4116,0
1421.035,4105,4117,4130,4140,4120,4129,4119,4126,4112,4120,4117,4093,4130,4134,0
1421.043,4121,4128,4131,4144,4117,4141,4128,4128,4125,4119,4131,4102,4139,4146,0
1421.05,4118,4121,4132,4137,4119,4137,4128,4127,4123,4120,4133,4103,4140,4139,0
1421.058,4115,4122,4137,4140,4120,4138,4135,4136,4124,4121,4137,4109,4137,4140,0
1421.066,4119,4130,4136,4145,4119,4143,4140,4139,4132,4119,4135,4114,4137,4147,0
1421.074,4127,4138,4139,4151,4121,4142,4139,4142,4144,4119,4126,4118,4138,4153,0
1421.082,4131,4139,4146,4157,4121,4142,4141,4140,4139,4121,4125,4119,4135,4154,0
1421.09,4125,4131,4142,4156,4121,4144,4135,4127,4118,4121,4133,4114,4133,4153,0
1421.098,4120,4125,4133,4152,4123,4140,4126,4122,4113,4119,4135,4109,4128,4152,0
1421.106,4120,4126,4135,4145,4122,4139,4136,4133,4126,4121,4125,4108,4124,4146,0
1421.114,4122,4125,4135,4141,4119,4138,4139,4134,4129,4122,4119,4104,4126,4136,0
1421.122,4121,4123,4129,4141,4119,4128,4122,4121,4117,4121,4121,4096,4133,4131,0
1421.129,4114,4125,4129,4141,4119,4121,4111,4108,4102,4121,4112,4094,4137,4135,0
1421.137,4111,4125,4133,4136,4118,4122,4109,4100,4089,4121,4103,4096,4137,4138,0
1421.145,4120,4125,4133,4139,4118,4121,4108,4102,4087,4121,4114,4098,4137,4140,0
1421.153,4125,4127,4134,4144,4119,4120,4113,4107,4100,4121,4121,4099,4136,4143,0
1421.161,4110,4123,4128,4133,4119,4122,4114,4107,4103,4121,4109,4092,4135,4136,0
1421.169,4100,4116,4120,4122,4120,4120,4108,4107,4094,4121,4101,4087,4137,4124,0
1421.177,4116,4124,4127,4135,4120,4125,4115,4109,4101,4121,4110,4095,4135,4127,0
1421.185,4126,4132,4137,4148,4120,4133,4129,4113,4114,4121,4117,4098,4128,4132,0
1421.192,4108,4119,4127,4131,4121,4125,4123,4118,4114,4121,4106,4084,4121,4115,0
1421.2,4103,4111,4119,4125,4122,4124,4117,4125,4120,4121,4097,4082,4120,4105,0
1421.208,4127,4126,4130,4147,4122,4141,4128,4124,4127,4121,4113,4102,4125,4126,0
1421.216,4141,4138,4139,4160,4121,4139,4127,4107,4107,4121,4133,4111,4129,4140,0
1421.224,4142,4137,4139,4159,4122,4122,4109,4103,4095,4121,4132,4107,4126,4132,0
1421.232,4146,4134,4138,4155,4122,4117,4103,4125,4109,4121,4122,4108,4119,4130,0
1421.24,4143,4126,4139,4148,4121,4121,4112,4129,4117,4121,4121,4111,4118,4138,0
1421.248,4141,4125,4139,4146,4121,4131,4121,4117,4116,4121,4127,4110,4120,4137,0
1421.255,4145,4136,4138,4155,4123,4145,4132,4128,4131,4121,4130,4114,4119,4137,0
1421.263,4143,4137,4138,4157,4121,4146,4142,4147,4148,4121,4128,4115,4121,4136,0
1421.271,4137,4127,4134,4154,4119,4138,4140,4142,4145,4121,4123,4111,4122,4128,0
1421.279,4130,4124,4127,4152,4122,4137,4130,4124,4129,4121,4121,4106,4121,4122,0
1421.287,4120,4123,4124,4144,4121,4138,4122,4117,4118,4121,4122,4100,4122,4122,0
1421.295,4111,4123,4124,4140,4116,4134,4120,4124,4122,4121,4119,4093,4122,4116,0
1421.303,4107,4122,4121,4139,4117,4131,4119,4125,4121,4121,4107,4088,4123,4106,0
1421.311,4111,4123,4124,4143,4122,4125,4113,4116,4108,4121,4099,4089,4129,4108,0
1421.318,4126,4132,4134,4159,4122,4124,4109,4115,4109,4121,4112,4100,4135,4128,0
1421.326,4138,4141,4141,4170,4118,4131,4123,4123,4123,4122,4133,4114,4139,4145,0
1421.334,4138,4139,4144,4168,4118,4135,4136,4132,4142,4123,4138,4122,4147,4150,0
1421.342,4143,4138,4147,4172,4120,4146,4143,4146,4161,4121,4137,4128,4150,4154,0
1421.35,4144,4141,4143,4171,4121,4151,4146,4134,4148,4120,4139,4123,4139,4152,0
1421.358,4130,4134,4137,4156,4120,4136,4132,4098,4103,4121,4130,4108,4133,4137,0
1421.366,4131,4132,4141,4161,4121,4126,4121,4093,4097,4120,4119,4111,4139,4136,0
1421.374,4149,4141,4149,4177,4123,4139,4135,4129,4133,4119,4128,4124,4139,4153,0
1421.382,4148,4142,4147,4172,4121,4147,4149,4147,4146,4120,4140,4124,4137,4157,0
1421.389,4136,4133,4143,4167,4119,4139,4140,4132,4131,4120,4137,4119,4138,4151,0
1421.397,4140,4136,4148,4175,4119,4138,4132,4126,4125,4119,4138,4122,4138,4153,0
1421.405,4145,4143,4153,4177,4121,4140,4135,4137,4127,4120,4145,4124,4138,4159,0
1421.413,4140,4142,4150,4170,4122,4137,4135,4138,4128,4120,4136,4121,4138,4155,0
1421.421,4136,4136,4147,4169,4121,4138,4138,4134,4136,4120,4122,4118,4137,4147,0
1421.429,4133,4133,4142,4173,4118,4143,4142,4138,4146,4120,4124,4115,4138,4142,0
1421.437,4128,4129,4138,4166,4119,4143,4135,4126,4127,4120,4128,4111,4140,4141,0
1421.445,4123,4122,4137,4156,4122,4133,4119,4102,4095,4120,4118,4102,4135,4136,0
1421.453,4122,4125,4138,4164,4122,4130,4124,4112,4104,4120,4118,4100,4137,4139,0
1421.46,4126,4138,4141,4177,4121,4146,4145,4141,4142,4120,4139,4118,4151,4160,0
1421.468,4125,4137,4141,4167,4122,4152,4147,4138,4143,4120,4136,4127,4152,4162,0
1421.476,4113,4122,4135,4149,4120,4136,4128,4119,4118,4120,4117,4112,4147,4140,0
1421.484,4110,4122,4136,4155,4121,4126,4120,4122,4120,4120,4127,4104,4145,4140,0
1421.492,4119,4133,4140,4170,4122,4128,4126,4129,4129,4119,4144,4115,4126,4154,0
1421.5,4122,4133,4139,4172,4121,4131,4133,4122,4124,4120,4137,4123,4154,4153,0
1421.508,4121,4129,4142,4173,4121,4137,4143,4133,4139,4120,4137,4126,4149,4152,0
1421.516,4116,4126,4140,4169,4120,4141,4145,4153,4157,4119,4146,4124,3994,4152,0
1421.523,4108,4122,4128,4156,4121,4133,4132,4133,4138,4120,4135,4111,3940,4141,0
1421.531,4110,4123,4128,4148,4122,4130,4128,4116,4126,4122,4127,4109,4102,4140,0
1421.539,4122,4127,4136,4161,4120,4138,4141,4141,4146,4122,4138,4124,4183,4152,0
1421.547,4124,4128,4131,4170,4119,4142,4143,4138,4141,4120,4143,4123,4123,4153,0
1421.555,4121,4126,4124,4160,4121,4139,4137,4100,4112,4121,4133,4111,4125,4145,0
1421.563,4120,4121,4122,4152,4123,4132,4132,4101,4110,4122,4125,4107,4153,4139,0
1421.571,4120,4124,4122,4161,4120,4126,4129,4126,4125,4121,4130,4109,4135,4139,0
1421.579,4123,4135,4126,4173,4117,4131,4134,4125,4128,4121,4138,4117,4134,4148,0
1421.586,4129,4137,4128,4170,4118,4143,4138,4118,4126,4121,4143,4123,4139,4151,0
1421.594,4124,4125,4120,4154,4119,4136,4124,4122,4123,4121,4137,4114,4140,4141,0
1421.602,4113,4118,4116,4143,4121,4122,4115,4126,4124,4121,4126,4101,4134,4135,0
1421.61,4115,4126,4123,4151,4119,4129,4123,4125,4130,4121,4122,4103,4123,4140,0
1421.618,4123,4133,4124,4158,4120,4137,4127,4117,4126,4121,4125,4107,4122,4143,0
1421.626,4122,4131,4117,4157,4124,4134,4129,4113,4127,4121,4126,4104,4122,4138,0
1421.634,4118,4132,4114,4166,4121,4133,4135,4120,4138,4120,4124,4101,4121,4138,0
1421.642,4128,4137,4121,4175,4116,4139,4138,4132,4144,4120,4124,4104,4120,4148,4
1421.649,4139,4140,4121,4167,4120,4141,4138,4135,4137,4121,4124,4110,4119,4151,0
1421.657,4133,4136,4114,4158,4121,4139,4136,4130,4128,4121,4124,4111,4121,4143,0
1421.665,4120,4128,4112,4155,4118,4135,4127,4118,4123,4121,4123,4105,4119,4136,0
1421.673,4120,4126,4117,4156,4117,4133,4123,4108,4117,4121,4123,4105,4112,4140,0
1421.681,4126,4129,4121,4158,4118,4134,4127,4113,4114,4121,4125,4111,4114,4143,0
1421.689,4122,4128,4116,4158,4119,4134,4125,4118,4118,4121,4115,4111,4122,4141,0
1421.697,4120,4126,4113,4162,4121,4134,4128,4115,4126,4121,4106,4105,4122,4141,0
1421.705,4124,4129,4119,4170,4120,4139,4140,4107,4126,4121,4114,4106,4121,4141,0
1421.713,4125,4125,4120,4169,4119,4140,4141,4105,4122,4121,4128,4110,4124,4145,0
1421.721,4123,4119,4120,4164,4120,4135,4125,4108,4119,4120,4130,4110,4125,4147,0
1421.728,4123,4122,4122,4168,4120,4134,4123,4117,4127,4121,4124,4112,4124,4147,0
1421.736,4121,4123,4121,4169,4121,4134,4135,4132,4147,4121,4128,4119,4121,4150,0
1421.744,4124,4121,4123,4167,4122,4134,4137,4131,4148,4118,4136,4124,4126,4157,0
1421.752,4137,4129,4132,4175,4119,4147,4142,4127,4143,4119,4138,4126,4131,4167,0
1421.76,4142,4139,4134,4183,4118,4158,4155,4133,4150,4121,4137,4129,4128,4171,0
1421.768,4139,4139,4130,4185,4120,4154,4156,4133,4148,4121,4142,4129,4128,4168,0
1421.776,4139,4135,4132,4187,4121,4152,4153,4124,4140,4119,4140,4127,4132,4161,0
1421.784,4138,4133,4134,4182,4120,4154,4152,4119,4137,4121,4133,4124,4133,4160,0
1421.791,4137,4134,4131,4174,4121,4144,4140,4123,4134,4123,4142,4125,4136,4164,0
1421.799,4139,4133,4131,4172,4122,4139,4140,4122,4133,4121,4144,4130,4139,4167,0
1421.807,4138,4129,4134,4174,4120,4143,4149,4121,4138,4120,4131,4129,4137,4170,0
1421.815,4141,4133,4136,4180,4119,4145,4146,4131,4147,4121,4139,4130,4135,4171,0
1421.823,4147,4141,4138,4192,4119,4145,4139,4141,4154,4122,4159,4141,4137,4172,0
1421.831,4142,4138,4134,4185,4118,4139,4138,4129,4143,4121,4146,4135,4134,4170,0
1421.839,4140,4136,4129,4171,4119,4140,4144,4123,4137,4121,4131,4122,4127,4167,0
1421.847,4140,4138,4131,4173,4120,4154,4159,4134,4151,4121,4139,4124,4122,4163,0
1421.854,4128,4130,4131,4173,4120,4152,4151,4117,4140,4121,4131,4121,4123,4156,0
1421.862,4125,4124,4126,4173,4120,4135,4127,4097,4113,4121,4112,4111,4120,4148,0
1421.87,4139,4134,4127,4182,4121,4134,4130,4115,4122,4121,4120,4120,4117,4157,0
1421.878,4142,4140,4134,4181,4119,4139,4139,4130,4142,4121,4140,4131,4128,4174,0
1421.886,4129,4131,4132,4169,4119,4142,4138,4117,4140,4121,4141,4121,4137,4170,0
1421.894,4121,4128,4128,4170,4119,4151,4145,4112,4136,4121,4128,4107,4127,4153,0
1421.902,4125,4136,4132,4177,4118,4151,4158,4130,4151,4121,4127,4111,4121,4155,0
1421.91,4126,4134,4132,4172,4118,4142,4156,4141,4163,4121,4128,4116,4129,4158,0
1421.917,4110,4116,4118,4158,4119,4136,4135,4118,4135,4121,4104,4100,4127,4135,0
1421.925,4096,4108,4108,4145,4119,4135,4123,4102,4108,4121,4087,4083,4121,4115,0
1421.933,4111,4122,4119,4157,4118,4139,4138,4126,4128,4121,4108,4094,4127,4132,0
1421.941,4125,4126,4128,4168,4120,4141,4142,4133,4138,4121,4119,4108,4128,4144,0
1421.949,4121,4116,4124,4158,4121,4137,4127,4109,4117,4121,4113,4105,4124,4138,0
1421.957,4121,4118,4128,4158,4118,4138,4132,4112,4117,4121,4123,4107,4121,4143,0
1421.965,4124,4121,4134,4172,4116,4139,4138,4125,4128,4121,4125,4110,4121,4150,0
1421.973,4114,4117,4129,4168,4119,4135,4126,4117,4120,4121,4106,4102,4121,4135,0
1421.98,4109,4117,4126,4154,4119,4137,4131,4120,4123,4121,4107,4098,4123,4127,0
1421.988,4114,4118,4131,4155,4115,4140,4142,4127,4131,4121,4114,4102,4127,4138,0
1421.996,4114,4116,4133,4160,4116,4135,4137,4118,4128,4121,4112,4102,4130,4141,0
1422.004,4113,4121,4132,4162,4120,4138,4142,4123,4138,4121,4117,4105,4125,4137,0
1422.012,4114,4126,4134,4167,4120,4144,4160,4142,4157,4121,4127,4109,4121,4141,0
1422.02,4117,4122,4136,4168,4119,4143,4154,4144,4154,4121,4122,4107,4125,4142,0
1422.028,4123,4122,4138,4162,4119,4138,4137,4131,4140,4121,4118,4104,4126,4139,0
1422.036,4120,4123,4140,4155,4119,4139,4143,4124,4137,4121,4128,4106,4124,4139,0
1422.043,4110,4121,4139,4156,4119,4141,4153,4133,4148,4121,4131,4109,4126,4142,0
1422.051,4110,4116,4137,4153,4121,4138,4143,4143,4155,4121,4117,4105,4125,4139,0
1422.059,4111,4110,4138,4147,4122,4134,4133,4132,4139,4121,4104,4095,4120,4132,0
1422.067,4114,4116,4146,4153,4121,4136,4136,4112,4116,4121,4115,4099,4119,4131,0
1422.075,4121,4125,4150,4158,4122,4137,4137,4103,4112,4121,4119,4108,4118,4137,0
1422.083,4120,4121,4150,4157,4122,4137,4136,4111,4126,4121,4108,4104,4109,4137,0
1422.091,4127,4125,4156,4165,4119,4142,4142,4123,4132,4121,4119,4108,4109,4137,0
1422.099,4152,4139,4163,4177,4118,4146,4146,4127,4128,4121,4145,4123,4118,4144,0
1422.106,4159,4137,4159,4168,4122,4141,4144,4125,4125,4121,4147,4126,4115,4146,0
1422.114,4139,4122,4152,4154,4123,4134,4138,4120,4124,4121,4125,4114,4104,4132,0
1422.122,4134,4120,4154,4156,4122,4135,4136,4126,4128,4121,4115,4107,4104,4122,0
1422.13,4146,4125,4157,4160,4122,4137,4139,4133,4135,4121,4121,4110,4108,4125,0
1422.138,4151,4122,4152,4159,4122,4136,4138,4129,4137,4121,4123,4117,4103,4125,0
1422.146,4152,4123,4159,4168,4122,4138,4141,4132,4139,4121,4129,4124,4104,4133,0
1422.154,4151,4128,4166,4171,4121,4140,4143,4137,4141,4121,4140,4125,4115,4142,0
1422.162,4141,4126,4160,4161,4121,4137,4138,4129,4137,4121,4137,4120,4117,4132,0
1422.169,4138,4124,4163,4164,4119,4139,4144,4133,4144,4121,4124,4121,4113,4125,0
1422.177,4148,4127,4176,4176,4117,4143,4150,4143,4151,4121,4126,4126,4112,4137,0
1422.185,4146,4131,4168,4170,4119,4138,4132,4128,4124,4121,4128,4122,4113,4134,0
1422.193,4140,4133,4161,4165,4122,4134,4122,4117,4110,4121,4121,4115,4118,4122,0
1422.201,4140,4129,4163,4170,4119,4134,4129,4126,4124,4121,4120,4110,4121,4124,0
1422.209,4129,4122,4153,4163,4118,4128,4125,4122,4116,4121,4117,4105,4112,4124,0
1422.217,4119,4119,4146,4153,4120,4126,4117,4115,4101,4121,4108,4097,4104,4116,0
1422.225,4123,4118,4153,4155,4123,4127,4122,4120,4112,4121,4103,4097,4109,4116,0
1422.233,4117,4113,4155,4154,4122,4123,4124,4124,4122,4121,4106,4100,4111,4121,0
1422.24,4111,4109,4153,4152,4120,4123,4123,4118,4118,4121,4112,4100,4108,4124,0
1422.248,4117,4106,4155,4151,4120,4124,4125,4108,4113,4121,4112,4096,4106,4116,0
1422.256,4114,4103,4155,4143,4120,4119,4120,4106,4111,4121,4104,4090,4104,4106,0
1422.264,4110,4108,4158,4140,4123,4121,4119,4121,4121,4121,4107,4090,4105,4108,0
1422.272,4114,4114,4162,4144,4120,4126,4126,4130,4131,4121,4109,4094,4106,4113,0
1422.28,4110,4109,4155,4139,4116,4118,4120,4114,4122,4121,4095,4091,4108,4108,0
1422.288,4103,4104,4151,4133,4119,4114,4111,4100,4106,4121,4089,4087,4109,4101,0
1422.296,4110,4108,4155,4138,4124,4121,4119,4111,4108,4121,4105,4089,4111,4107,0
1422.304,4115,4112,4158,4142,4121,4123,4126,4128,4121,4121,4112,4096,4114,4120,0
1422.311,4112,4112,4158,4135,4117,4117,4119,4118,4116,4121,4108,4098,4113,4123,0
1422.319,4107,4110,4156,4125,4118,4113,4115,4101,4103,4121,4107,4096,4112,4120,0
1422.327,4110,4108,4155,4128,4120,4117,4119,4114,4109,4121,4106,4094,4118,4119,0
1422.335,4112,4110,4157,4140,4119,4121,4121,4122,4114,4121,4102,4093,4122,4121,0
1422.343,4111,4114,4162,4137,4118,4122,4119,4107,4108,4121,4106,4099,4128,4129,0
1422.351,4118,4114,4166,4128,4119,4123,4123,4112,4111,4121,4119,4108,4134,4138,0
1422.359,4119,4109,4162,4132,4123,4123,4124,4124,4117,4121,4120,4110,4127,4138,0
1422.367,4111,4111,4159,4137,4120,4119,4117,4111,4106,4121,4112,4105,4120,4134,0
1422.374,4117,4119,4168,4140,4117,4123,4124,4113,4112,4121,4123,4111,4130,4139,0
1422.382,4131,4127,4174,4152,4121,4131,4141,4142,4140,4121,4144,4124,4139,4146,4
1422.39,4127,4122,4173,4153,4121,4129,4140,4143,4144,4121,4139,4124,4138,4146,0
1422.398,4119,4112,4168,4137,4118,4122,4127,4121,4124,4121,4117,4108,4134,4135,0
1422.406,4121,4109,4164,4134,4120,4120,4125,4114,4116,4121,4115,4100,4130,4128,0
1422.414,4123,4114,4163,4140,4123,4121,4130,4123,4120,4121,4127,4105,4133,4134,0
1422.422,4122,4117,4166,4139,4122,4123,4135,4131,4126,4121,4130,4109,4140,4136,0
1422.43,4121,4116,4163,4138,4122,4125,4139,4122,4123,4121,4123,4107,4138,4128,0
1422.437,4119,4115,4159,4138,4121,4122,4132,4110,4110,4121,4120,4102,4137,4125,0
1422.445,4120,4108,4157,4137,4118,4119,4123,4120,4115,4121,4120,4101,4140,4126,0
1422.453,4122,4103,4156,4138,4120,4122,4130,4134,4131,4121,4123,4107,4141,4131,0
1422.461,4123,4105,4158,4137,4120,4127,4139,4119,4120,4121,4131,4110,4141,4141,0
1422.469,4127,4108,4161,4137,4119,4126,4133,4107,4105,4121,4137,4109,4145,4143,0
1422.477,4127,4107,4159,4139,4122,4123,4129,4119,4113,4121,4136,4109,4144,4140,0
1422.485,4117,4102,4152,4134,4120,4122,4129,4117,4110,4121,4128,4106,4140,4137,0
1422.493,4112,4099,4155,4131,4118,4121,4126,4106,4097,4121,4123,4103,4139,4135,0
1422.5,4121,4105,4164,4139,4120,4124,4133,4117,4109,4121,4121,4108,4139,4139,0
1422.508,4126,4109,4163,4142,4121,4126,4141,4133,4129,4121,4126,4113,4145,4142,0
1422.516,4121,4107,4157,4136,4119,4123,4139,4130,4125,4121,4137,4112,4150,4142,0
1422.524,4120,4109,4159,4136,4120,4126,4138,4125,4121,4121,4137,4110,4148,4141,0
1422.532,4126,4115,4161,4138,4120,4135,4141,4128,4128,4121,4125,4109,4147,4140,0
1422.54,4129,4116,4163,4139,4122,4138,4139,4127,4128,4121,4124,4109,4151,4141,0
1422.548,4127,4110,4161,4141,4124,4129,4134,4127,4123,4121,4127,4107,4152,4141,0
1422.556,4120,4105,4157,4140,4119,4121,4131,4134,4121,4121,4120,4104,4150,4137,0
1422.563,4118,4108,4160,4138,4116,4132,4137,4136,4124,4121,4128,4108,4154,4141,0
1422.571,4122,4112,4166,4138,4120,4141,4142,4125,4125,4121,4139,4113,4162,4146,0
1422.579,4122,4108,4157,4132,4121,4128,4138,4116,4119,4121,4122,4105,4168,4138,0
1422.587,4123,4106,4153,4129,4118,4120,4133,4120,4114,4121,4122,4105,4171,4142,0
1422.595,4125,4107,4163,4134,4117,4130,4137,4124,4119,4121,4140,4115,4171,4153,0
1422.603,4122,4104,4164,4137,4118,4126,4135,4126,4124,4121,4127,4109,4169,4141,0
1422.611,4120,4102,4160,4138,4119,4120,4134,4127,4122,4121,4115,4100,4166,4135,0
1422.619,4126,4108,4163,4143,4119,4135,4146,4120,4123,4121,4137,4110,4171,4155,0
1422.626,4125,4107,4162,4139,4123,4136,4147,4118,4128,4121,4137,4113,4166,4153,0
1422.634,4124,4105,4159,4135,4123,4127,4141,4133,4137,4121,4116,4105,4157,4139,0
1422.642,4132,4111,4163,4145,4119,4136,4143,4141,4145,4121,4122,4108,4163,4148,0
1422.65,4128,4110,4162,4143,4119,4140,4146,4133,4142,4121,4132,4108,4167,4149,0
1422.658,4112,4098,4154,4128,4119,4124,4137,4125,4127,4121,4123,4099,4153,4136,0
1422.666,4108,4094,4157,4128,4119,4116,4127,4126,4114,4121,4120,4100,4150,4137,0
1422.674,4117,4105,4166,4139,4121,4124,4131,4132,4118,4121,4129,4110,4164,4146,0
1422.682,4118,4108,4167,4133,4123,4126,4133,4131,4122,4121,4127,4111,4163,4144,0
1422.69,4110,4097,4160,4120,4119,4121,4124,4126,4112,4122,4115,4104,4152,4137,0
1422.698,4117,4098,4161,4128,4118,4119,4119,4117,4105,4121,4115,4101,4153,4136,0
1422.705,4129,4110,4166,4139,4120,4122,4124,4106,4103,4120,4123,4105,4154,4140,0
1422.713,4118,4103,4159,4131,4120,4120,4124,4108,4104,4120,4118,4101,4154,4139,0
1422.721,4107,4093,4154,4123,4121,4118,4126,4119,4111,4121,4111,4096,4161,4136,0
1422.729,4118,4099,4164,4128,4122,4124,4138,4129,4124,4120,4120,4102,4170,4142,0
1422.737,4118,4098,4168,4128,4121,4127,4143,4133,4139,4119,4126,4110,4170,4146,0
1422.745,4106,4089,4162,4122,4119,4126,4137,4131,4139,4120,4120,4108,4169,4142,0
1422.753,4106,4090,4160,4119,4119,4120,4129,4118,4119,4120,4110,4099,4170,4137,0
1422.761,4107,4092,4160,4123,4120,4113,4122,4108,4108,4119,4108,4093,4170,4138,0
1422.768,4099,4082,4153,4122,4122,4109,4114,4105,4105,4120,4107,4089,4166,4134,0
1422.776,4089,4072,4144,4107,4121,4106,4109,4111,4101,4120,4096,4083,4160,4121,0
1422.784,4089,4075,4149,4102,4117,4113,4117,4119,4102,4120,4088,4082,4161,4117,0
1422.792,4093,4081,4157,4111,4118,4119,4125,4110,4100,4120,4094,4084,4158,4124,0
1422.8,4088,4075,4148,4103,4119,4109,4112,4093,4087,4120,4096,4077,4152,4122,0
1422.808,4087,4074,4142,4096,4120,4102,4100,4105,4092,4120,4089,4074,4154,4119,0
1422.816,4099,4090,4152,4116,4119,4108,4111,4134,4116,4120,4094,4086,4156,4127,0
1422.824,4103,4095,4160,4125,4119,4110,4123,4137,4128,4120,4110,4095,4156,4132,0
1422.831,4094,4086,4154,4110,4119,4109,4119,4126,4124,4120,4110,4087,4161,4126,0
1422.839,4086,4080,4147,4101,4117,4111,4108,4118,4110,4120,4093,4076,4160,4121,0
1422.847,4085,4080,4147,4104,4119,4108,4104,4115,4105,4120,4093,4078,4152,4121,0
1422.855,4090,4083,4153,4109,4119,4107,4107,4112,4104,4120,4104,4085,4152,4124,0
1422.863,4090,4084,4153,4111,4117,4108,4106,4111,4098,4120,4097,4082,4151,4126,0
1422.871,4080,4078,4150,4105,4119,4105,4104,4110,4094,4120,4086,4076,4141,4123,0
1422.879,4082,4082,4154,4104,4123,4104,4106,4107,4098,4119,4094,4083,4136,4121,0
1422.887,4094,4092,4159,4111,4118,4106,4108,4110,4103,4119,4107,4091,4139,4126,0
1422.894,4086,4086,4155,4111,4115,4107,4108,4110,4104,4120,4105,4089,4137,4128,0
1422.902,4078,4079,4154,4114,4120,4103,4108,4106,4104,4119,4093,4089,4135,4125,0
1422.91,4087,4084,4155,4125,4119,4104,4109,4105,4103,4119,4090,4089,4137,4124,0
1422.918,4088,4087,4152,4124,4116,4106,4108,4113,4107,4121,4091,4082,4138,4122,0
1422.926,4079,4084,4154,4110,4119,4100,4104,4119,4107,4121,4089,4080,4136,4122,0
1422.934,4084,4083,4161,4108,4120,4096,4102,4113,4101,4120,4097,4090,4137,4125,0
1422.942,4092,4083,4159,4119,4121,4101,4101,4109,4099,4120,4104,4091,4141,4128,0
1422.95,4089,4083,4152,4121,4121,4099,4098,4109,4099,4120,4094,4081,4142,4124,0
1422.958,4087,4084,4155,4118,4119,4090,4093,4099,4091,4120,4092,4080,4144,4116,0
1422.966,4091,4083,4154,4118,4116,4089,4090,4090,4079,4120,4095,4082,4149,4109,0
1422.973,4093,4086,4148,4118,4118,4094,4092,4095,4079,4120,4090,4079,4153,4108,0
1422.981,4092,4092,4150,4122,4120,4096,4094,4106,4089,4120,4086,4080,4150,4107,0
1422.989,4101,4094,4153,4130,4118,4097,4094,4108,4093,4120,4091,4083,4140,4103,0
1422.997,4106,4091,4144,4125,4120,4097,4094,4104,4094,4120,4092,4079,4139,4099,0
1423.005,4096,4090,4137,4119,4121,4095,4094,4099,4090,4120,4089,4075,4150,4092,4
1423.013,4096,4091,4145,4125,4118,4094,4091,4104,4091,4120,4089,4077,4159,4090,0
1423.021,4105,4091,4150,4127,4117,4092,4090,4120,4105,4120,4091,4081,4162,4099,0
1423.029,4099,4091,4148,4124,4119,4090,4092,4120,4109,4120,4089,4082,4168,4107,0
1423.036,4090,4089,4147,4126,4119,4093,4098,4105,4097,4120,4096,4082,4169,4107,0
1423.044,4093,4082,4146,4123,4118,4092,4097,4099,4091,4120,4101,4080,4162,4099,0
1423.052,4091,4074,4139,4112,4119,4082,4091,4096,4088,4120,4087,4075,4157,4089,0
1423.06,4088,4073,4136,4110,4120,4083,4096,4095,4089,4120,4079,4076,4161,4094,0
1423.068,4093,4080,4134,4116,4120,4093,4105,4108,4100,4120,4093,4085,4165,4104,0
1423.076,4096,4081,4126,4114,4120,4091,4096,4111,4097,4120,4096,4084,4159,4099,0
1423.084,4091,4075,4123,4110,4119,4083,4085,4089,4076,4120,4087,4076,4154,4094,0
1423.092,4091,4080,4128,4118,4118,4088,4090,4088,4078,4120,4094,4082,4158,4104,0
1423.099,4103,4092,4136,4130,4117,4094,4096,4116,4102,4120,4110,4095,4166,4114,0
1423.107,4101,4093,4137,4128,4116,4090,4093,4114,4102,4120,4111,4094,4168,4112,0
1423.115,4085,4082,4127,4114,4117,4079,4087,4088,4086,4120,4092,4081,4163,4102,0
1423.123,4081,4073,4121,4105,4120,4076,4085,4095,4091,4120,4076,4072,4167,4089,0
1423.131,4091,4081,4127,4112,4119,4093,4097,4120,4110,4120,4086,4080,4189,4093,0
1423.139,4099,4093,4133,4125,4117,4110,4114,4118,4115,4120,4108,4095,4205,4113,0
1423.147,4102,4092,4130,4129,4120,4108,4116,4111,4111,4120,4115,4098,4201,4121,0
1423.155,4101,4087,4127,4127,4121,4099,4110,4116,4111,4120,4108,4095,4197,4113,0
1423.162,4099,4089,4125,4124,4118,4094,4103,4110,4105,4121,4102,4093,4201,4107,0
1423.17,4100,4091,4125,4121,4118,4093,4096,4104,4102,4121,4105,4093,4199,4113,0
1423.178,4098,4091,4127,4122,4120,4093,4096,4118,4108,4120,4116,4099,4188,4114,0
1423.186,4095,4092,4130,4125,4121,4089,4097,4115,4106,4121,4118,4100,4184,4109,0
1423.194,4093,4091,4126,4125,4119,4088,4092,4099,4095,4121,4108,4089,4192,4107,0
1423.202,4088,4091,4121,4121,4118,4089,4089,4098,4088,4121,4097,4087,4201,4109,0
1423.21,4094,4092,4125,4121,4116,4091,4098,4109,4097,4121,4098,4095,4200,4108,0
1423.218,4107,4095,4134,4123,4118,4097,4110,4119,4116,4121,4113,4096,4200,4113,0
1423.225,4110,4100,4141,4126,4122,4104,4114,4126,4125,4121,4123,4097,4206,4122,0
1423.233,4107,4102,4136,4133,4120,4104,4111,4122,4119,4121,4125,4105,4207,4125,0
1423.241,4110,4102,4131,4138,4117,4099,4105,4107,4104,4121,4121,4102,4203,4122,0
1423.249,4109,4099,4132,4131,4117,4092,4098,4099,4092,4121,4111,4091,4203,4114,0
1423.257,4100,4091,4126,4120,4119,4087,4093,4097,4091,4121,4097,4084,4196,4106,0
1423.265,4101,4093,4119,4120,4119,4091,4103,4110,4111,4121,4100,4086,4186,4104,0
1423.273,4104,4101,4122,4126,4116,4095,4113,4126,4128,4121,4111,4085,4191,4103,0
1423.281,4091,4092,4123,4118,4115,4085,4097,4101,4099,4121,4101,4073,4206,4090,0
1423.289,4087,4087,4119,4115,4121,4082,4088,4075,4073,4121,4086,4070,4215,4085,0
1423.297,4103,4102,4123,4130,4121,4093,4105,4095,4097,4121,4094,4084,4219,4099,0
1423.304,4110,4106,4126,4138,4120,4095,4113,4114,4114,4121,4106,4091,4222,4109,0
1423.312,4106,4099,4126,4134,4122,4092,4105,4105,4101,4121,4106,4091,4217,4110,0
1423.32,4110,4104,4130,4137,4116,4099,4108,4105,4102,4121,4109,4099,4210,4118,0
1423.328,4112,4108,4126,4136,4112,4103,4112,4109,4111,4121,4109,4100,4200,4123,0
1423.336,4109,4106,4121,4129,4119,4100,4109,4108,4108,4121,4112,4094,4191,4119,0
1423.344,4111,4106,4126,4135,4121,4100,4112,4119,4113,4121,4118,4101,4185,4120,0
1423.352,4115,4108,4131,4141,4117,4098,4114,4122,4122,4121,4114,4108,4177,4123,0
1423.36,4115,4109,4128,4137,4118,4096,4116,4118,4125,4121,4108,4107,4171,4122,0
1423.367,4113,4111,4121,4141,4119,4096,4122,4123,4130,4121,4112,4105,4165,4120,0
1423.375,4108,4110,4114,4141,4119,4102,4123,4111,4120,4121,4113,4098,4156,4112,0
1423.383,4105,4101,4111,4128,4121,4104,4115,4092,4099,4121,4108,4089,4150,4105,0
1423.391,4108,4096,4110,4128,4117,4095,4106,4101,4100,4121,4106,4091,4151,4108,0
1423.399,4111,4103,4107,4139,4117,4090,4104,4111,4110,4121,4105,4096,4154,4109,0
1423.407,4114,4104,4108,4135,4122,4096,4108,4105,4107,4121,4111,4096,4157,4109,0
1423.415,4110,4093,4107,4120,4121,4100,4111,4109,4108,4121,4110,4094,4157,4107,0
1423.423,4101,4088,4098,4119,4118,4095,4111,4112,4113,4121,4100,4089,4152,4099,0
1423.43,4100,4090,4096,4121,4117,4092,4106,4106,4110,4121,4095,4083,4160,4095,0
1423.438,4107,4093,4102,4122,4116,4094,4104,4113,4116,4121,4100,4089,4172,4104,0
1423.446,4112,4105,4102,4135,4115,4100,4113,4131,4134,4121,4113,4096,4172,4112,0
1423.454,4113,4109,4094,4137,4117,4103,4119,4132,4139,4121,4115,4095,4174,4109,0
1423.462,4109,4101,4087,4118,4116,4106,4114,4118,4122,4121,4106,4090,4184,4107,0
1423.47,4099,4097,4081,4112,4117,4103,4108,4105,4104,4121,4105,4086,4186,4108,0
1423.478,4090,4092,4075,4119,4120,4091,4105,4106,4107,4121,4109,4083,4183,4105,0
1423.486,4097,4089,4074,4120,4121,4090,4107,4122,4125,4121,4107,4085,4185,4104,0
1423.493,4106,4094,4076,4122,4118,4101,4112,4131,4129,4121,4104,4088,4186,4109,0
1423.501,4101,4096,4076,4126,4118,4102,4113,4125,4123,4121,4105,4090,4186,4105,0
1423.509,4099,4091,4077,4121,4119,4098,4109,4112,4116,4121,4110,4093,4187,4094,0
1423.517,4103,4089,4078,4118,4117,4097,4108,4098,4106,4121,4108,4091,4180,4088,0
1423.525,4100,4092,4077,4123,4116,4093,4109,4102,4105,4121,4097,4085,4174,4084,0
1423.533,4101,4096,4072,4125,4118,4093,4109,4110,4111,4121,4089,4082,4173,4079,0
1423.541,4106,4096,4070,4121,4118,4094,4102,4096,4100,4121,4090,4076,4172,4077,0
1423.549,4104,4092,4072,4121,4116,4092,4095,4081,4086,4121,4093,4072,4168,4078,0
1423.556,4096,4091,4069,4125,4118,4090,4094,4085,4088,4121,4086,4075,4167,4078,0
1423.564,4094,4092,4060,4122,4118,4088,4098,4093,4097,4121,4079,4073,4168,4077,0
1423.572,4103,4099,4064,4120,4117,4094,4104,4100,4109,4121,4094,4076,4168,4083,0
1423.58,4115,4108,4076,4131,4119,4108,4116,4112,4122,4121,4114,4091,4169,4101,0
1423.588,4115,4106,4073,4138,4120,4107,4121,4121,4126,4121,4113,4099,4172,4112,0
1423.596,4104,4095,4063,4126,4120,4097,4113,4118,4117,4121,4107,4092,4173,4103,0
1423.604,4098,4090,4060,4112,4121,4098,4108,4108,4107,4121,4109,4090,4174,4092,0
1423.612,4101,4094,4061,4114,4120,4100,4109,4105,4108,4121,4109,4094,4170,4096,0
1423.619,4108,4098,4060,4123,4118,4098,4112,4111,4116,4121,4107,4090,4151,4101,3
1423.627,4103,4096,4057,4120,4118,4098,4108,4105,4110,4121,4101,4080,4136,4092,0
1423.635,4091,4091,4055,4117,4121,4098,4099,4091,4096,4121,4093,4072,4136,4081,0
1423.643,4097,4095,4057,4125,4122,4099,4099,4088,4094,4121,4088,4073,4132,4081,0
1423.651,4109,4102,4058,4130,4116,4106,4106,4094,4100,4121,4092,4080,4123,4088,0
1423.659,4116,4106,4062,4128,4113,4110,4106,4103,4108,4121,4113,4093,4123,4103,0
1423.667,4131,4114,4070,4135,4118,4112,4112,4116,4122,4121,4129,4105,4126,4121,0
1423.675,4139,4118,4072,4141,4121,4113,4122,4122,4129,4121,4123,4111,4122,4127,0
1423.683,4127,4112,4066,4137,4118,4109,4115,4113,4118,4121,4120,4107,4122,4121,0
1423.691,4119,4106,4056,4135,4117,4107,4104,4102,4104,4121,4124,4102,4124,4118,0
1423.698,4124,4107,4053,4136,4122,4111,4113,4106,4112,4121,4116,4101,4124,4117,0
1423.706,4124,4110,4055,4135,4121,4113,4121,4113,4124,4121,4112,4105,4121,4116,0
1423.714,4122,4112,4054,4138,4117,4112,4121,4104,4117,4121,4119,4101,4121,4115,0
1423.722,4122,4114,4046,4144,4121,4116,4120,4102,4112,4121,4114,4096,4130,4111,0
1423.73,4115,4110,4041,4142,4122,4109,4112,4104,4111,4121,4102,4091,4139,4106,0
1423.738,4104,4104,4037,4136,4118,4091,4099,4095,4102,4121,4102,4082,4140,4102,0
1423.746,4110,4107,4035,4138,4116,4098,4105,4094,4104,4121,4112,4086,4135,4106,0
1423.754,4115,4113,4035,4139,4116,4111,4111,4098,4113,4121,4110,4092,4129,4110,0
1423.761,4097,4104,4029,4125,4115,4096,4097,4093,4106,4121,4097,4077,4119,4102,0
1423.769,4087,4101,4027,4119,4116,4091,4098,4101,4109,4121,4100,4072,4112,4100,0
1423.777,4098,4109,4030,4126,4119,4116,4117,4117,4124,4121,4109,4090,4112,4109,0
1423.785,4095,4101,4024,4122,4120,4117,4114,4103,4111,4121,4101,4089,4107,4108,0
1423.793,4086,4088,4020,4118,4119,4101,4102,4094,4105,4121,4099,4079,4102,4100,0
1423.801,4097,4098,4024,4123,4118,4108,4109,4110,4122,4121,4109,4088,4106,4104,0
1423.809,4108,4110,4022,4126,4117,4116,4113,4109,4117,4121,4110,4094,4104,4105,0
1423.817,4109,4106,4016,4123,4118,4106,4106,4097,4102,4121,4103,4082,4091,4092,0
1423.824,4107,4106,4016,4122,4117,4102,4104,4102,4107,4120,4094,4076,4092,4083,0
1423.832,4107,4109,4015,4120,4118,4107,4106,4105,4109,4120,4086,4076,4104,4078,0
1423.84,4115,4110,4015,4121,4121,4108,4105,4099,4101,4121,4094,4081,4107,4074,0
1423.848,4128,4118,4019,4131,4120,4106,4105,4112,4113,4120,4111,4091,4105,4084,0
1423.856,4128,4122,4021,4135,4117,4107,4108,4128,4129,4121,4111,4094,4107,4094,0
1423.864,4117,4114,4018,4127,4117,4117,4111,4115,4118,4121,4097,4084,4107,4085,0
1423.872,4111,4106,4012,4121,4119,4121,4112,4100,4106,4121,4091,4076,4106,4073,0
1423.88,4108,4105,4007,4121,4118,4114,4109,4112,4116,4122,4095,4080,4107,4074,0
1423.887,4106,4107,4009,4124,4117,4108,4107,4128,4128,4123,4095,4086,4109,4079,0
1423.895,4109,4106,4015,4128,4118,4109,4111,4128,4130,4122,4100,4086,4111,4084,0
1423.903,4117,4109,4017,4131,4119,4112,4112,4120,4132,4119,4108,4089,4114,4091,0
1423.911,4122,4119,4016,4129,4118,4109,4103,4109,4121,4119,4108,4095,4113,4094,0
1423.919,4123,4118,4015,4126,4116,4105,4094,4105,4105,4120,4105,4092,4113,4096,0
1423.927,4122,4114,4015,4124,4117,4106,4097,4117,4115,4119,4109,4094,4118,4104,0
1423.935,4123,4120,4014,4130,4119,4109,4106,4121,4126,4119,4109,4102,4119,4109,0
1423.943,4123,4122,4008,4135,4120,4105,4105,4103,4110,4120,4106,4096,4109,4104,0
1423.951,4126,4116,4002,4133,4119,4110,4103,4104,4103,4120,4110,4091,4104,4104,0
1423.958,4124,4113,4003,4128,4118,4124,4115,4128,4122,4120,4114,4101,4105,4109,0
1423.966,4114,4110,4002,4118,4119,4125,4120,4129,4128,4120,4110,4103,4105,4101,0
1423.974,4104,4104,3993,4109,4119,4120,4113,4113,4115,4120,4107,4093,4104,4095,0
1423.982,4104,4105,3990,4110,4118,4121,4116,4121,4119,4120,4107,4091,4108,4104,0
1423.99,4113,4112,3999,4122,4119,4120,4122,4130,4130,4120,4112,4097,4110,4110,0
1423.998,4121,4119,4004,4131,4119,4115,4114,4125,4128,4120,4119,4102,4109,4108,0
1424.006,4121,4118,4001,4129,4117,4115,4110,4135,4136,4120,4118,4102,4107,4109,0
1424.014,4113,4112,3995,4115,4118,4114,4111,4139,4137,4120,4109,4096,4106,4109,0
1424.022,4107,4109,3993,4104,4119,4109,4099,4114,4111,4120,4105,4090,4106,4102,0
1424.029,4109,4109,3996,4113,4117,4105,4090,4104,4092,4120,4106,4088,4099,4098,0
1424.037,4109,4106,3998,4121,4120,4109,4098,4120,4105,4120,4106,4089,4094,4098,0
1424.045,4112,4107,3998,4121,4123,4116,4109,4126,4119,4120,4108,4092,4100,4103,0
1424.053,4121,4113,4000,4126,4120,4119,4108,4119,4118,4120,4109,4094,4107,4108,0
1424.061,4122,4115,4002,4126,4116,4118,4107,4123,4121,4120,4106,4096,4103,4107,0
1424.069,4113,4111,4001,4117,4119,4122,4116,4127,4125,4120,4106,4097,4098,4105,0
1424.077,4108,4108,4002,4116,4122,4128,4122,4123,4122,4120,4107,4096,4095,4106,0
1424.085,4107,4107,4001,4121,4117,4127,4117,4122,4122,4120,4107,4093,4092,4105,0
1424.092,4110,4109,3996,4121,4112,4121,4109,4125,4126,4120,4106,4096,4089,4103,0
1424.1,4122,4118,3998,4125,4116,4121,4113,4126,4128,4120,4104,4102,4089,4108,0
1424.108,4128,4126,4004,4131,4121,4125,4114,4124,4122,4120,4108,4102,4089,4113,0
1424.116,4119,4117,4001,4123,4119,4121,4107,4122,4120,4120,4109,4097,4088,4109,0
1424.124,4112,4106,3994,4115,4118,4121,4111,4128,4134,4120,4103,4094,4091,4102,0
1424.132,4112,4107,3998,4119,4121,4129,4121,4138,4138,4120,4104,4094,4098,4104,0
1424.14,4111,4111,4003,4122,4121,4130,4122,4129,4120,4120,4104,4095,4101,4107,0
1424.148,4107,4107,3999,4118,4118,4123,4121,4107,4113,4120,4091,4089,4097,4097,0
1424.155,4105,4105,4003,4118,4120,4125,4122,4107,4121,4120,4089,4088,4097,4094,0
1424.163,4111,4111,4009,4123,4120,4129,4117,4129,4123,4120,4109,4100,4103,4110,0
1424.171,4116,4112,4003,4122,4118,4122,4108,4129,4122,4120,4115,4102,4102,4114,0
1424.179,4107,4104,4003,4112,4117,4109,4105,4109,4117,4119,4095,4082,4093,4093,0
1424.187,4100,4106,4026,4112,4117,4109,4104,4106,4109,4120,4089,4079,4097,4090,0
1424.195,4114,4121,4043,4131,4118,4119,4105,4126,4118,4120,4110,4099,4121,4110,0
1424.203,4130,4126,4043,4139,4117,4123,4108,4142,4134,4119,4116,4106,4121,4114,0
1424.211,4121,4120,4041,4125,4117,4123,4115,4133,4128,4120,4100,4093,4087,4103,0
1424.218,4112,4119,4043,4124,4117,4132,4124,4120,4123,4121,4101,4088,4116,4105,3
1424.226,4119,4121,4045,4130,4117,4134,4124,4130,4137,4121,4114,4098,4095,4110,0
1424.234,4123,4116,4048,4126,4117,4124,4118,4138,4142,4120,4110,4101,3876,4107,0
1424.242,4118,4113,4046,4125,4120,4123,4113,4126,4122,4121,4111,4096,3769,4110,0
1424.25,4109,4111,4040,4124,4120,4122,4107,4114,4106,4121,4113,4090,3944,4107,0
1424.258,4100,4103,4039,4110,4115,4112,4101,4108,4104,4121,4100,4085,4100,4095,0
1424.266,4103,4106,4043,4111,4119,4115,4101,4109,4107,4121,4097,4085,4120,4099,0
1424.274,4113,4123,4050,4127,4123,4124,4107,4115,4109,4121,4109,4093,3984,4112,0
1424.281,4114,4123,4051,4125,4121,4122,4108,4112,4106,4121,4109,4096,3658,4109,0
1424.289,4107,4108,4049,4121,4118,4116,4104,4101,4096,4121,4101,4091,3506,4103,0
1424.297,4110,4112,4052,4134,4119,4114,4104,4109,4102,4121,4106,4089,3715,4107,0
1424.305,4118,4123,4058,4134,4118,4119,4110,4126,4123,4121,4113,4094,3932,4110,0
1424.313,4120,4121,4057,4120,4118,4123,4115,4122,4124,4121,4109,4095,4031,4108,0
1424.321,4121,4117,4058,4122,4120,4122,4120,4117,4121,4121,4106,4095,4135,4113,0
1424.329,4126,4122,4066,4136,4118,4131,4127,4134,4141,4121,4114,4104,4161,4124,0
1424.337,4128,4124,4065,4141,4120,4137,4126,4144,4145,4121,4123,4109,4083,4127,0
1424.344,4124,4115,4058,4134,4124,4126,4118,4123,4120,4121,4126,4099,4051,4120,0
1424.352,4119,4107,4059,4122,4121,4116,4112,4099,4099,4121,4119,4089,4105,4109,0
1424.36,4119,4112,4060,4118,4117,4119,4107,4101,4099,4121,4108,4091,4149,4106,0
1424.368,4134,4123,4067,4132,4119,4123,4113,4122,4117,4121,4114,4104,4137,4121,0
1424.376,4143,4126,4077,4144,4122,4126,4124,4118,4122,4121,4121,4106,4135,4126,0
1424.384,4136,4123,4075,4142,4116,4124,4118,4095,4102,4121,4109,4093,4149,4111,0
1424.392,4135,4123,4071,4139,4113,4120,4109,4106,4103,4121,4111,4097,4149,4113,0
1424.4,4139,4123,4072,4137,4118,4125,4117,4128,4126,4121,4126,4104,4163,4120,0
1424.407,4136,4120,4075,4131,4122,4133,4125,4122,4130,4121,4124,4099,4176,4113,0
1424.415,4134,4121,4076,4135,4118,4138,4124,4128,4134,4121,4119,4099,4167,4115,0
1424.423,4139,4124,4079,4139,4116,4138,4125,4147,4146,4121,4123,4106,4172,4121,0
1424.431,4138,4122,4081,4138,4118,4133,4125,4138,4143,4121,4123,4104,4195,4116,0
1424.439,4131,4121,4081,4136,4118,4125,4122,4114,4127,4121,4124,4101,4204,4114,0
1424.447,4130,4122,4079,4133,4118,4122,4120,4105,4116,4121,4129,4103,4196,4114,0
1424.455,4135,4124,4079,4134,4121,4129,4120,4116,4118,4123,4121,4100,4198,4111,0
1424.463,4138,4125,4081,4143,4121,4134,4124,4117,4115,4122,4110,4096,4210,4119,0
1424.47,4138,4124,4081,4138,4122,4133,4127,4113,4114,4119,4121,4100,4216,4124,0
1424.478,4136,4122,4082,4124,4123,4129,4126,4126,4132,4119,4135,4108,4224,4122,0
1424.486,4132,4118,4086,4130,4121,4130,4130,4132,4144,4121,4132,4108,4227,4125,0
1424.494,4124,4114,4087,4136,4118,4134,4139,4129,4142,4120,4125,4103,4220,4124,0
1424.502,4121,4112,4083,4119,4118,4138,4138,4133,4141,4119,4124,4098,4217,4114,0
1424.51,4121,4108,4082,4109,4119,4134,4127,4132,4134,4119,4121,4091,4216,4105,0
1424.518,4122,4104,4085,4121,4118,4125,4121,4124,4123,4120,4120,4091,4216,4109,0
1424.526,4127,4109,4087,4126,4117,4121,4117,4121,4118,4119,4121,4094,4215,4118,0
1424.534,4133,4117,4089,4122,4119,4120,4113,4112,4110,4120,4117,4097,4212,4119,0
1424.542,4143,4124,4099,4136,4123,4127,4120,4115,4124,4120,4126,4109,4210,4128,0
1424.549,4154,4128,4108,4149,4123,4137,4134,4131,4144,4120,4141,4124,4216,4143,0
1424.557,4155,4130,4109,4145,4118,4139,4137,4127,4139,4120,4140,4127,4219,4146,0
1424.565,4149,4131,4108,4143,4118,4139,4139,4126,4140,4120,4138,4123,4210,4142,0
1424.573,4144,4130,4107,4144,4124,4143,4146,4143,4154,4120,4146,4121,4207,4140,0
1424.581,4132,4124,4098,4138,4121,4136,4136,4134,4137,4120,4134,4108,4212,4130,0
1424.589,4125,4121,4092,4138,4117,4125,4124,4113,4116,4120,4117,4094,4207,4118,0
1424.597,4135,4124,4100,4140,4117,4132,4133,4127,4130,4120,4130,4099,4200,4121,0
1424.605,4135,4123,4104,4130,4116,4136,4132,4142,4138,4120,4139,4110,4202,4127,0
1424.612,4123,4120,4098,4121,4114,4126,4119,4136,4131,4120,4127,4106,4201,4125,0
1424.62,4125,4124,4098,4124,4120,4123,4123,4139,4138,4120,4128,4101,4191,4125,0
1424.628,4130,4119,4097,4124,4124,4122,4119,4140,4131,4120,4134,4100,4184,4125,0
1424.636,4121,4111,4090,4121,4120,4114,4102,4118,4106,4120,4120,4092,4179,4118,0
1424.644,4119,4115,4092,4121,4118,4119,4111,4123,4118,4120,4114,4092,4173,4116,0
1424.652,4127,4124,4102,4122,4121,4131,4130,4157,4151,4120,4132,4107,4172,4124,0
1424.66,4126,4121,4104,4125,4122,4130,4127,4146,4137,4120,4138,4107,4171,4124,0
1424.668,4116,4111,4098,4122,4121,4122,4120,4111,4111,4120,4124,4094,4168,4115,0
1424.675,4117,4114,4100,4120,4119,4126,4132,4134,4139,4120,4117,4100,4167,4118,0
1424.683,4125,4119,4107,4126,4119,4129,4137,4165,4165,4120,4126,4111,4169,4128,0
1424.691,4121,4116,4104,4126,4118,4118,4112,4127,4125,4120,4125,4098,4167,4122,0
1424.699,4118,4115,4099,4119,4119,4111,4099,4093,4091,4120,4118,4091,4166,4114,0
1424.707,4131,4122,4107,4123,4122,4120,4116,4118,4115,4120,4122,4106,4168,4120,0
1424.715,4139,4124,4112,4128,4120,4125,4122,4132,4128,4120,4124,4110,4178,4124,0
1424.723,4140,4122,4109,4129,4118,4119,4106,4115,4110,4120,4123,4105,4196,4120,0
1424.731,4151,4126,4113,4137,4121,4119,4108,4120,4112,4120,4126,4110,4211,4123,0
1424.738,4157,4126,4116,4138,4121,4121,4115,4128,4125,4120,4126,4110,4216,4122,0
1424.746,4145,4122,4108,4127,4118,4120,4109,4120,4120,4120,4121,4098,4216,4106,0
1424.754,4137,4120,4107,4121,4121,4122,4112,4125,4119,4120,4125,4097,4216,4099,0
1424.762,4144,4122,4113,4122,4123,4122,4121,4135,4126,4120,4129,4107,4217,4105,0
1424.77,4147,4124,4109,4126,4120,4121,4119,4126,4119,4120,4117,4105,4217,4102,0
1424.778,4141,4124,4104,4128,4118,4126,4121,4122,4115,4120,4106,4099,4212,4095,0
1424.786,4138,4122,4101,4125,4120,4128,4123,4131,4125,4120,4114,4099,4205,4096,0
1424.794,4138,4117,4093,4121,4120,4115,4109,4129,4123,4120,4120,4094,4198,4097,0
1424.802,4135,4112,4087,4123,4119,4104,4095,4123,4108,4120,4113,4089,4202,4092,0
1424.809,4129,4109,4089,4123,4118,4108,4093,4114,4097,4120,4108,4093,4219,4090,0
1424.817,4123,4106,4084,4112,4119,4107,4091,4096,4087,4120,4107,4093,4232,4089,0
1424.825,4121,4106,4077,4105,4122,4104,4094,4096,4087,4120,4104,4089,4231,4089,0
1424.833,4123,4110,4079,4115,4122,4116,4112,4115,4108,4120,4111,4093,4230,4091,0
1424.841,4124,4113,4082,4124,4118,4124,4121,4122,4122,4120,4119,4097,4240,4092,0
1424.849,4124,4110,4080,4119,4118,4118,4112,4122,4121,4120,4114,4100,4247,4092,0
1424.857,4125,4110,4081,4120,4122,4119,4114,4138,4129,4120,4115,4108,4247,4099,0
1424.865,4128,4112,4083,4123,4123,4126,4123,4137,4132,4120,4122,4107,4243,4105,0
1424.873,4124,4111,4077,4111,4119,4124,4115,4121,4119,4120,4121,4097,4237,4097,0
1424.88,4122,4109,4072,4108,4118,4121,4107,4132,4122,4120,4123,4100,4234,4097,0
1424.888,4123,4109,4074,4113,4119,4117,4111,4139,4128,4120,4122,4102,4234,4105,0
1424.896,4123,4109,4074,4107,4120,4108,4105,4110,4105,4120,4108,4095,4233,4101,0
1424.904,4131,4116,4073,4116,4122,4109,4101,4102,4098,4120,4114,4104,4233,4106,0
1424.912,4148,4130,4075,4138,4121,4123,4118,4130,4122,4120,4143,4127,4237,4135,0
1424.92,4152,4130,4072,4133,4118,4127,4128,4132,4129,4120,4142,4128,4237,4139,0
1424.928,4136,4117,4063,4114,4119,4118,4116,4117,4117,4120,4119,4108,4229,4114,0
1424.936,4126,4113,4058,4116,4119,4115,4111,4122,4116,4120,4121,4100,4227,4107,0
1424.943,4123,4111,4057,4117,4118,4113,4113,4123,4113,4120,4121,4096,4228,4110,0
1424.951,4120,4110,4056,4111,4119,4106,4107,4119,4111,4120,4109,4090,4238,4107,0
1424.959,4126,4119,4060,4118,4120,4108,4103,4130,4119,4120,4121,4096,4246,4113,0
1424.967,4139,4127,4065,4126,4117,4121,4112,4139,4124,4120,4143,4108,4222,4126,0
1424.975,4136,4124,4064,4123,4119,4125,4116,4131,4123,4120,4136,4110,4229,4126,0
1424.983,4122,4121,4065,4119,4123,4117,4109,4123,4123,4120,4120,4104,4235,4118,0
1424.991,4125,4124,4068,4120,4123,4116,4112,4125,4123,4120,4123,4107,4048,4117,0
1424.999,4139,4125,4070,4128,4120,4119,4123,4133,4129,4120,4131,4109,3823,4122,4
1425.006,4142,4130,4077,4139,4119,4127,4134,4138,4138,4120,4138,4112,3879,4125,0
1425.014,4141,4132,4080,4141,4120,4136,4139,4138,4142,4120,4140,4118,4037,4123,0
1425.022,4141,4127,4077,4130,4123,4132,4136,4136,4139,4120,4139,4117,4033,4122,0
1425.03,4140,4127,4082,4126,4122,4124,4126,4127,4129,4120,4145,4113,4018,4125,0
1425.038,4138,4125,4083,4127,4119,4120,4114,4113,4114,4119,4137,4110,4052,4115,0
1425.046,4139,4127,4077,4124,4120,4121,4108,4114,4112,4119,4119,4109,4008,4110,0
1425.054,4141,4137,4078,4122,4122,4122,4111,4128,4124,4120,4127,4112,3965,4122,0
1425.062,4140,4138,4078,4127,4121,4119,4115,4130,4128,4119,4139,4113,3993,4120,0
1425.069,4134,4126,4073,4126,4122,4115,4113,4114,4115,4119,4130,4106,4006,4107,0
1425.077,4131,4128,4077,4121,4123,4121,4117,4103,4106,4122,4130,4109,3978,4115,0
1425.085,4138,4140,4082,4125,4119,4128,4130,4108,4116,4122,4145,4120,3964,4129,0
1425.093,4135,4131,4074,4124,4117,4122,4127,4117,4126,4121,4137,4112,3959,4118,0
1425.101,4124,4118,4070,4117,4120,4118,4117,4115,4119,4121,4120,4101,3944,4103,0
1425.109,4129,4128,4080,4128,4121,4123,4118,4128,4124,4123,4129,4111,3934,4112,0
1425.117,4143,4138,4083,4141,4117,4122,4118,4145,4141,4123,4142,4119,3910,4126,0
1425.125,4139,4128,4074,4128,4119,4110,4107,4126,4125,4122,4137,4107,3883,4124,0
1425.132,4128,4120,4069,4116,4121,4106,4103,4101,4099,4123,4135,4102,3878,4114,0
1425.14,4131,4126,4073,4122,4118,4113,4112,4113,4112,4123,4140,4112,3902,4112,0
1425.148,4128,4126,4073,4118,4116,4120,4118,4129,4132,4122,4125,4108,3907,4108,0
1425.156,4120,4121,4072,4108,4120,4122,4122,4115,4118,4122,4110,4096,3880,4103,0
1425.164,4121,4122,4072,4111,4122,4119,4121,4100,4105,4122,4119,4096,3914,4105,0
1425.172,4122,4121,4070,4119,4119,4109,4115,4106,4114,4122,4127,4096,4017,4105,0
1425.18,4120,4121,4072,4118,4118,4112,4117,4122,4124,4123,4122,4096,4076,4104,0
1425.188,4122,4124,4076,4111,4118,4121,4122,4128,4126,4123,4123,4102,4066,4108,0
1425.195,4123,4123,4072,4106,4116,4117,4117,4116,4119,4122,4127,4099,4075,4108,0
1425.203,4122,4118,4072,4108,4119,4113,4117,4117,4119,4123,4125,4094,4102,4103,0
1425.211,4123,4120,4081,4114,4122,4124,4126,4136,4135,4123,4126,4103,4116,4111,0
1425.219,4123,4126,4084,4121,4117,4126,4125,4136,4143,4120,4130,4109,4123,4122,0
1425.227,4123,4126,4082,4125,4114,4122,4124,4121,4138,4119,4133,4106,4118,4122,0
1425.235,4125,4126,4085,4122,4119,4132,4132,4119,4131,4120,4130,4107,4127,4120,0
1425.243,4128,4131,4089,4121,4121,4133,4132,4125,4130,4121,4127,4109,4130,4124,0
1425.251,4134,4136,4092,4126,4119,4125,4126,4126,4137,4120,4134,4111,4115,4121,0
1425.259,4134,4137,4095,4126,4121,4126,4128,4119,4135,4121,4139,4111,4136,4112,0
1425.267,4127,4132,4094,4128,4123,4130,4130,4114,4126,4121,4138,4108,4182,4103,0
1425.274,4126,4126,4090,4127,4119,4126,4125,4123,4133,4120,4138,4108,4193,4096,0
1425.282,4123,4123,4086,4115,4117,4123,4121,4130,4145,4120,4125,4106,4181,4088,0
1425.29,4116,4122,4086,4111,4117,4125,4125,4128,4137,4120,4114,4103,4184,4089,0
1425.298,4121,4123,4089,4122,4119,4132,4133,4137,4136,4120,4133,4106,4188,4102,0
1425.306,4128,4126,4091,4128,4122,4138,4136,4147,4145,4121,4148,4112,4187,4109,0
1425.314,4116,4123,4087,4121,4121,4129,4125,4132,4133,4123,4130,4106,4181,4095,0
1425.322,4110,4119,4087,4120,4121,4118,4117,4115,4117,4123,4118,4100,4179,4088,0
1425.33,4120,4123,4092,4125,4123,4126,4125,4118,4123,4121,4124,4102,4185,4100,0
1425.337,4126,4129,4094,4122,4121,4135,4137,4124,4138,4121,4126,4106,4183,4108,0
1425.345,4130,4130,4094,4125,4117,4132,4138,4125,4140,4122,4124,4109,4176,4108,0
1425.353,4124,4126,4088,4123,4120,4124,4128,4124,4131,4121,4125,4103,4174,4101,0
1425.361,4107,4118,4080,4109,4122,4119,4121,4119,4123,4121,4121,4091,4171,4089,0
1425.369,4110,4121,4086,4112,4115,4127,4124,4121,4127,4121,4121,4092,4168,4093,0
1425.377,4125,4126,4095,4128,4114,4133,4125,4126,4129,4120,4125,4104,4169,4102,0
1425.385,4123,4121,4090,4126,4118,4124,4118,4128,4127,4119,4121,4104,4169,4097,0
1425.393,4123,4124,4091,4119,4119,4122,4122,4136,4138,4119,4124,4102,4167,4099,0
1425.4,4130,4137,4101,4126,4117,4136,4129,4142,4146,4120,4140,4111,4171,4112,0
1425.408,4123,4131,4099,4126,4119,4139,4126,4134,4137,4122,4143,4112,4172,4107,0
1425.416,4119,4122,4097,4120,4121,4131,4126,4127,4134,4122,4134,4107,4170,4099,0
1425.424,4128,4132,4105,4126,4119,4136,4138,4129,4143,4121,4135,4111,4171,4106,0
1425.432,4126,4138,4106,4130,4118,4137,4143,4129,4145,4121,4140,4113,4163,4108,0
1425.44,4124,4133,4101,4124,4118,4129,4135,4125,4140,4122,4139,4110,4158,4106,0
1425.448,4128,4132,4102,4122,4118,4126,4127,4120,4136,4121,4133,4107,4162,4104,0
1425.456,4127,4135,4105,4125,4118,4127,4124,4112,4135,4121,4128,4106,4161,4098,0
1425.463,4126,4134,4102,4125,4117,4127,4127,4111,4136,4121,4124,4107,4155,4099,0
1425.471,4127,4133,4098,4122,4118,4126,4126,4120,4137,4121,4125,4108,4154,4105,0
1425.479,4126,4134,4101,4127,4118,4127,4123,4125,4142,4122,4136,4108,4156,4107,0
1425.487,4126,4132,4104,4129,4117,4127,4125,4125,4144,4122,4137,4106,4150,4104,0
1425.495,4126,4125,4101,4118,4118,4125,4123,4125,4139,4121,4126,4103,4140,4097,0
1425.503,4116,4116,4095,4104,4120,4122,4117,4114,4126,4121,4120,4097,4136,4090,0
1425.511,4107,4115,4096,4105,4119,4121,4118,4106,4121,4123,4126,4094,4138,4092,0
1425.519,4108,4122,4100,4116,4119,4124,4125,4111,4124,4123,4126,4096,4142,4096,0
1425.527,4112,4125,4099,4120,4121,4122,4122,4106,4119,4122,4120,4096,4140,4096,0
1425.535,4115,4124,4095,4116,4118,4121,4115,4101,4117,4123,4125,4092,4138,4100,0
1425.542,4123,4131,4098,4119,4114,4126,4119,4110,4124,4123,4134,4097,4138,4105,0
1425.55,4128,4141,4106,4128,4117,4128,4125,4112,4126,4122,4128,4103,4139,4107,0
1425.558,4125,4139,4107,4126,4121,4121,4118,4107,4120,4122,4119,4100,4139,4107,0
1425.566,4124,4136,4106,4123,4118,4119,4114,4114,4124,4122,4129,4101,4139,4112,0
1425.574,4124,4135,4108,4125,4118,4122,4117,4126,4132,4122,4137,4107,4140,4114,0
1425.582,4123,4135,4107,4122,4122,4120,4114,4123,4128,4122,4128,4104,4139,4113,0
1425.59,4126,4136,4108,4121,4119,4120,4111,4110,4121,4122,4125,4105,4137,4117,0
1425.598,4128,4135,4109,4124,4118,4120,4116,4113,4123,4122,4124,4106,4135,4115,0
1425.605,4123,4133,4110,4124,4123,4121,4121,4125,4132,4122,4122,4101,4137,4109,0
1425.613,4119,4129,4109,4120,4123,4124,4124,4116,4128,4122,4127,4096,4135,4108,0
1425.621,4120,4125,4108,4121,4118,4119,4119,4094,4107,4123,4120,4090,4126,4105,0
1425.629,4122,4126,4107,4123,4117,4112,4107,4087,4092,4122,4103,4084,4121,4099,0
1425.637,4119,4127,4108,4115,4121,4112,4105,4090,4092,4122,4110,4091,4124,4106,0
1425.645,4113,4125,4107,4108,4121,4113,4109,4090,4092,4123,4125,4094,4126,4110,0
1425.653,4115,4122,4106,4106,4118,4111,4106,4089,4093,4122,4115,4083,4121,4095,3
1425.661,4121,4121,4108,4106,4121,4111,4106,4097,4104,4120,4105,4081,4121,4093,0
1425.668,4122,4123,4108,4113,4120,4109,4113,4107,4113,4120,4120,4093,4124,4106,0
1425.676,4122,4125,4108,4121,4116,4109,4114,4106,4116,4122,4129,4096,4124,4104,0
1425.684,4126,4126,4112,4116,4119,4115,4111,4102,4115,4121,4115,4090,4126,4092,0
1425.692,4135,4127,4112,4110,4124,4114,4113,4106,4114,4120,4111,4086,4128,4091,0
1425.7,4138,4128,4108,4112,4121,4113,4118,4113,4121,4120,4122,4088,4128,4092,0
1425.708,4129,4124,4104,4107,4119,4117,4114,4107,4120,4120,4116,4083,4129,4083,0
1425.716,4128,4121,4102,4105,4121,4113,4105,4106,4110,4119,4104,4077,4134,4075,0
1425.724,4139,4124,4107,4114,4122,4109,4108,4119,4119,4119,4110,4086,4136,4080,0
1425.731,4135,4125,4107,4109,4122,4115,4113,4118,4125,4120,4117,4093,4136,4083,0
1425.739,4118,4121,4097,4096,4119,4112,4109,4103,4110,4119,4108,4085,4137,4076,0
1425.747,4116,4120,4096,4095,4117,4104,4105,4108,4105,4120,4107,4084,4135,4075,0
1425.755,4121,4118,4101,4098,4118,4105,4106,4107,4101,4119,4113,4086,4129,4081,0
1425.763,4116,4106,4093,4093,4120,4100,4098,4075,4078,4119,4103,4073,4124,4076,0
1425.771,4104,4097,4088,4087,4120,4091,4088,4064,4071,4120,4085,4061,4121,4066,0
1425.779,4104,4101,4096,4087,4120,4095,4096,4085,4086,4119,4090,4065,4122,4069,0
1425.787,4117,4110,4100,4093,4121,4106,4110,4102,4101,4120,4107,4075,4124,4078,0
1425.794,4120,4107,4098,4095,4120,4106,4108,4103,4107,4122,4106,4076,4124,4077,0
1425.802,4110,4099,4098,4090,4120,4103,4103,4096,4102,4122,4098,4074,4122,4073,0
1425.81,4115,4103,4101,4096,4121,4106,4110,4101,4101,4121,4103,4083,4125,4083,0
1425.818,4126,4113,4103,4106,4122,4103,4113,4112,4108,4121,4112,4092,4126,4094,0
1425.826,4122,4108,4101,4099,4123,4099,4106,4106,4108,4122,4112,4087,4122,4091,0
1425.834,4118,4108,4100,4094,4121,4105,4110,4095,4101,4122,4108,4085,4120,4087,0
1425.842,4123,4120,4108,4105,4118,4116,4124,4103,4111,4121,4108,4092,4120,4096,0
1425.85,4129,4125,4117,4117,4119,4120,4128,4112,4125,4121,4117,4100,4121,4108,0
1425.858,4137,4124,4120,4125,4121,4122,4123,4107,4121,4120,4128,4107,4122,4110,0
1425.866,4139,4125,4120,4123,4120,4119,4123,4102,4111,4121,4126,4107,4122,4109,0
1425.873,4129,4124,4118,4106,4119,4114,4126,4108,4119,4120,4114,4097,4122,4103,0
1425.881,4126,4120,4113,4101,4119,4114,4123,4111,4121,4119,4109,4090,4115,4093,0
1425.889,4132,4118,4112,4108,4120,4122,4122,4099,4107,4119,4112,4094,4108,4091,0
1425.897,4129,4115,4114,4108,4123,4124,4125,4098,4109,4120,4108,4093,4107,4096,0
1425.905,4119,4109,4114,4106,4119,4113,4125,4107,4121,4119,4102,4086,4109,4092,0
1425.913,4118,4106,4112,4103,4116,4107,4124,4107,4116,4120,4108,4084,4107,4089,0
1425.921,4120,4109,4111,4098,4120,4110,4119,4103,4106,4119,4111,4087,4106,4094,0
1425.929,4110,4107,4107,4091,4121,4109,4110,4098,4097,4119,4099,4077,4105,4090,0
1425.936,4101,4098,4103,4085,4118,4096,4103,4098,4091,4120,4089,4068,4103,4076,0
1425.944,4111,4102,4110,4093,4117,4090,4107,4106,4104,4120,4097,4080,4104,4082,0
1425.952,4122,4111,4121,4106,4120,4100,4115,4108,4114,4119,4113,4093,4105,4104,0
1425.96,4124,4113,4118,4106,4120,4107,4120,4098,4106,4121,4122,4099,4106,4111,0
1425.968,4132,4119,4118,4104,4119,4111,4126,4105,4117,4124,4127,4105,4109,4111,0
1425.976,4131,4121,4125,4107,4119,4113,4127,4115,4131,4122,4124,4102,4109,4112,0
1425.984,4119,4108,4117,4101,4119,4108,4120,4098,4111,4119,4110,4091,4106,4101,0
1425.992,4120,4111,4111,4102,4120,4112,4126,4101,4109,4120,4104,4090,4107,4096,0
1425.999,4124,4122,4117,4108,4119,4128,4144,4136,4142,4121,4107,4093,4111,4101,0
1426.007,4116,4112,4117,4097,4120,4121,4136,4131,4133,4121,4102,4085,4107,4093,0
1426.015,4116,4108,4116,4093,4119,4106,4117,4096,4098,4121,4108,4084,4104,4086,0
1426.023,4125,4121,4123,4107,4119,4115,4126,4099,4111,4121,4122,4093,4109,4095,0
1426.031,4124,4119,4123,4110,4121,4117,4134,4117,4130,4120,4113,4093,4111,4097,0
1426.039,4119,4108,4121,4097,4119,4107,4123,4110,4113,4121,4101,4089,4111,4094,0
1426.047,4114,4106,4125,4094,4116,4112,4122,4105,4110,4120,4109,4092,4111,4094,0
1426.055,4111,4110,4122,4100,4120,4123,4134,4110,4123,4120,4109,4093,4109,4094,0
1426.062,4119,4119,4126,4107,4122,4129,4139,4117,4123,4120,4108,4095,4115,4101,0
1426.07,4131,4125,4138,4107,4119,4131,4140,4127,4126,4120,4124,4101,4123,4111,0
1426.078,4131,4123,4140,4109,4119,4128,4138,4127,4131,4120,4125,4103,4122,4111,0
1426.086,4124,4122,4137,4109,4120,4123,4135,4120,4126,4120,4107,4098,4120,4106,0
1426.094,4120,4120,4140,4103,4117,4123,4136,4118,4123,4120,4105,4095,4120,4103,0
1426.102,4131,4126,4145,4114,4119,4127,4141,4130,4137,4120,4121,4104,4126,4114,0
1426.11,4147,4137,4150,4124,4123,4127,4140,4136,4142,4120,4127,4114,4135,4127,0
1426.118,4139,4131,4148,4114,4120,4124,4136,4132,4135,4120,4123,4111,4133,4121,0
1426.126,4126,4123,4145,4113,4117,4125,4138,4135,4139,4120,4127,4107,4131,4116,0
1426.134,4132,4127,4147,4120,4117,4129,4136,4126,4133,4120,4125,4106,4135,4123,0
1426.141,4136,4127,4145,4111,4118,4119,4123,4100,4107,4120,4111,4101,4132,4116,0
1426.149,4124,4120,4137,4101,4119,4109,4116,4094,4092,4120,4102,4097,4131,4103,0
1426.157,4120,4120,4140,4106,4118,4116,4122,4105,4100,4120,4104,4098,4137,4105,0
1426.165,4128,4124,4151,4113,4118,4125,4130,4108,4113,4120,4112,4103,4137,4113,0
1426.173,4135,4129,4158,4122,4121,4124,4137,4115,4121,4120,4121,4107,4135,4119,0
1426.181,4138,4127,4165,4129,4122,4124,4141,4125,4128,4120,4122,4108,4138,4122,0
1426.188,4133,4122,4175,4120,4120,4126,4135,4123,4126,4120,4118,4106,4138,4117,0
1426.196,4125,4123,4188,4109,4120,4122,4124,4121,4118,4120,4121,4106,4136,4117,0
1426.204,4123,4123,4196,4110,4122,4120,4121,4122,4118,4120,4123,4106,4137,4120,0
1426.212,4122,4121,4197,4117,4122,4121,4126,4122,4128,4120,4120,4108,4136,4120,0
1426.22,4125,4126,4204,4123,4118,4122,4126,4118,4126,4120,4128,4110,4136,4125,0
1426.228,4128,4130,4211,4123,4117,4123,4125,4120,4121,4120,4134,4110,4136,4129,0
1426.236,4121,4125,4207,4117,4120,4118,4126,4126,4126,4120,4128,4108,4137,4125,0
1426.244,4109,4120,4204,4109,4119,4108,4116,4115,4118,4120,4118,4099,4134,4116,0
1426.252,4105,4116,4213,4105,4119,4110,4109,4101,4104,4120,4109,4089,4133,4107,0
1426.26,4110,4116,4221,4108,4122,4121,4117,4113,4118,4120,4106,4090,4135,4109,0
1426.267,4119,4123,4222,4117,4121,4125,4127,4126,4130,4120,4117,4098,4136,4121,0
1426.275,4128,4130,4229,4127,4118,4127,4129,4118,4122,4120,4129,4103,4137,4126,0
1426.283,4123,4129,4231,4120,4119,4124,4124,4121,4122,4120,4122,4098,4138,4120,0
1426.291,4108,4120,4214,4106,4122,4109,4112,4129,4119,4120,4104,4089,4137,4109,4
1426.299,4103,4116,4198,4109,4119,4102,4103,4105,4096,4120,4089,4081,4135,4102,0
1426.307,4108,4122,4200,4116,4118,4108,4108,4086,4088,4120,4095,4078,4137,4103,0
1426.315,4108,4121,4201,4109,4119,4110,4115,4110,4106,4120,4110,4080,4133,4106,0
1426.323,4105,4112,4189,4100,4122,4107,4111,4127,4114,4120,4100,4078,4124,4105,0
1426.33,4106,4115,4183,4103,4120,4105,4105,4107,4101,4120,4091,4081,4126,4102,0
1426.338,4108,4121,4184,4111,4115,4109,4110,4098,4099,4120,4105,4088,4136,4105,0
1426.346,4108,4115,4177,4109,4116,4111,4115,4111,4109,4120,4107,4086,4136,4106,0
1426.354,4105,4109,4170,4106,4121,4107,4109,4109,4106,4120,4091,4076,4134,4097,0
1426.362,4102,4109,4169,4103,4119,4105,4107,4099,4098,4120,4088,4075,4137,4091,0
1426.37,4106,4113,4167,4101,4117,4108,4113,4113,4105,4120,4101,4081,4137,4098,0
1426.378,4111,4116,4163,4098,4121,4106,4109,4125,4113,4120,4109,4084,4136,4107,0
1426.386,4111,4117,4161,4101,4122,4106,4104,4111,4104,4120,4110,4086,4137,4108,0
1426.393,4117,4121,4161,4109,4119,4111,4113,4102,4102,4120,4108,4086,4138,4110,0
1426.401,4121,4127,4155,4111,4119,4112,4119,4113,4111,4120,4109,4090,4137,4113,0
1426.409,4112,4123,4145,4107,4120,4105,4107,4111,4109,4120,4107,4093,4135,4110,0
1426.417,4105,4116,4144,4106,4120,4101,4103,4105,4102,4120,4107,4087,4137,4108,0
1426.425,4108,4114,4144,4106,4120,4104,4111,4119,4108,4120,4107,4082,4137,4110,0
1426.433,4107,4114,4139,4103,4120,4108,4110,4123,4111,4120,4106,4085,4131,4106,0
1426.441,4109,4119,4137,4105,4118,4109,4111,4114,4104,4120,4114,4094,4133,4110,0
1426.449,4118,4125,4139,4113,4118,4108,4120,4116,4111,4120,4119,4099,4137,4120,0
1426.456,4121,4124,4137,4109,4120,4109,4117,4128,4125,4120,4116,4098,4130,4118,0
1426.464,4122,4122,4134,4104,4120,4109,4105,4123,4119,4120,4110,4093,4130,4110,0
1426.472,4118,4124,4129,4106,4118,4107,4103,4106,4103,4120,4102,4089,4135,4108,0
1426.48,4112,4124,4124,4108,4118,4109,4114,4112,4112,4120,4099,4090,4130,4109,0
1426.488,4111,4118,4121,4107,4119,4110,4117,4125,4126,4120,4108,4087,4129,4106,0
1426.496,4107,4114,4113,4103,4120,4104,4105,4112,4110,4120,4109,4078,4137,4098,0
1426.504,4111,4123,4115,4109,4119,4110,4109,4108,4105,4120,4104,4082,4140,4101,0
1426.512,4126,4133,4123,4120,4117,4125,4132,4128,4127,4120,4111,4094,4139,4116,0
1426.519,4124,4126,4114,4114,4120,4118,4128,4116,4121,4120,4111,4088,4138,4113,0
1426.527,4116,4118,4107,4105,4123,4110,4120,4099,4106,4120,4105,4080,4136,4103,0
1426.535,4124,4124,4113,4112,4120,4122,4136,4121,4122,4120,4108,4091,4138,4111,0
1426.543,4123,4126,4107,4112,4119,4121,4135,4124,4126,4120,4105,4093,4138,4114,0
1426.551,4109,4117,4093,4096,4121,4104,4112,4104,4109,4120,4097,4079,4138,4105,0
1426.559,4105,4116,4090,4093,4120,4104,4103,4105,4104,4120,4099,4072,4139,4102,0
1426.567,4111,4121,4090,4102,4119,4110,4110,4112,4108,4120,4094,4072,4140,4106,0
1426.575,4120,4126,4088,4110,4119,4109,4117,4111,4115,4120,4090,4077,4140,4108,0
1426.583,4123,4129,4087,4114,4118,4115,4122,4116,4122,4120,4104,4085,4139,4111,0
1426.591,4116,4125,4084,4108,4117,4122,4131,4122,4131,4120,4106,4083,4135,4110,0
1426.598,4107,4115,4079,4096,4118,4122,4138,4124,4141,4120,4089,4074,4129,4101,0
1426.606,4105,4110,4076,4093,4121,4121,4135,4122,4129,4120,4090,4075,4126,4094,0
1426.614,4108,4114,4075,4098,4121,4116,4122,4108,4099,4120,4094,4078,4129,4101,0
1426.622,4107,4113,4071,4096,4120,4109,4116,4100,4092,4120,4081,4071,4130,4108,0
1426.63,4101,4110,4064,4089,4123,4107,4111,4110,4105,4120,4087,4071,4125,4102,0
1426.638,4107,4118,4066,4095,4123,4109,4110,4116,4108,4120,4110,4086,4127,4106,0
1426.646,4122,4128,4075,4115,4118,4113,4114,4114,4106,4120,4113,4095,4135,4119,0
1426.654,4128,4129,4075,4126,4119,4113,4115,4112,4105,4120,4098,4093,4137,4123,0
1426.661,4129,4126,4068,4118,4122,4110,4118,4109,4110,4120,4103,4096,4135,4118,0
1426.669,4137,4125,4067,4106,4122,4112,4123,4116,4123,4120,4120,4105,4137,4117,0
1426.677,4139,4123,4064,4104,4122,4116,4126,4124,4127,4120,4114,4100,4141,4115,0
1426.685,4126,4115,4053,4106,4121,4109,4119,4117,4115,4120,4098,4083,4141,4102,0
1426.693,4116,4106,4047,4099,4119,4101,4108,4104,4105,4120,4097,4071,4138,4085,0
1426.701,4114,4104,4046,4088,4120,4102,4109,4109,4112,4120,4096,4067,4134,4080,0
1426.709,4128,4111,4047,4093,4122,4109,4115,4128,4119,4120,4093,4073,4136,4091,0
1426.717,4139,4114,4047,4111,4120,4112,4114,4128,4110,4120,4105,4079,4139,4099,0
1426.724,4126,4107,4041,4110,4120,4104,4105,4106,4094,4120,4108,4073,4138,4087,0
1426.732,4111,4097,4032,4091,4122,4098,4104,4097,4091,4120,4090,4060,4136,4073,0
1426.74,4114,4094,4028,4081,4119,4101,4109,4112,4099,4120,4078,4057,4134,4070,0
1426.748,4109,4088,4019,4076,4117,4093,4098,4107,4091,4120,4074,4052,4128,4063,0
1426.756,4089,4076,4006,4070,4121,4074,4076,4088,4074,4120,4063,4037,4121,4047,0
1426.764,4084,4079,4005,4073,4123,4071,4072,4089,4076,4120,4056,4033,4119,4046,0
1426.772,4097,4094,4013,4079,4119,4083,4080,4092,4078,4121,4064,4044,4121,4063,0
1426.78,4106,4093,4011,4075,4118,4089,4083,4085,4070,4120,4073,4051,4123,4072,0
1426.787,4105,4089,4011,4082,4122,4086,4088,4092,4075,4120,4078,4056,4123,4073,0
1426.795,4107,4098,4014,4095,4120,4088,4093,4106,4091,4121,4081,4061,4123,4080,0
1426.803,4106,4095,4013,4086,4118,4089,4091,4110,4096,4122,4077,4059,4123,4081,0
1426.811,4094,4081,4007,4070,4120,4086,4088,4104,4091,4119,4065,4052,4121,4070,0
1426.819,4086,4078,4000,4071,4121,4086,4088,4087,4075,4118,4063,4044,4119,4063,0
1426.827,4096,4087,3998,4080,4121,4091,4090,4079,4065,4121,4076,4047,4120,4069,0
1426.835,4109,4101,4004,4096,4120,4096,4095,4095,4080,4121,4089,4062,4124,4082,0
1426.843,4112,4108,4007,4107,4121,4098,4097,4106,4090,4119,4092,4070,4126,4092,0
1426.851,4107,4102,3997,4097,4121,4100,4099,4112,4096,4119,4094,4066,4124,4091,0
1426.859,4100,4092,3992,4087,4118,4099,4099,4118,4107,4120,4090,4060,4123,4081,0
1426.866,4096,4091,3996,4091,4117,4093,4093,4112,4102,4119,4082,4058,4123,4075,0
1426.874,4098,4093,3995,4093,4120,4089,4091,4104,4090,4119,4092,4060,4124,4082,0
1426.882,4102,4091,3991,4093,4121,4092,4095,4107,4090,4120,4103,4065,4126,4092,0
1426.89,4099,4089,3991,4091,4119,4093,4092,4106,4091,4120,4092,4063,4128,4091,0
1426.898,4099,4095,3994,4087,4118,4088,4087,4103,4089,4120,4085,4060,4135,4088,0
1426.906,4112,4108,4001,4095,4117,4099,4097,4107,4093,4120,4096,4065,4137,4094,0
1426.914,4115,4110,4003,4107,4119,4109,4104,4105,4098,4120,4100,4065,4129,4098,0
1426.922,4103,4102,3997,4105,4121,4096,4089,4099,4089,4120,4089,4056,4122,4090,0
1426.929,4107,4103,3993,4102,4120,4087,4085,4105,4087,4120,4089,4059,4127,4094,0
1426.937,4124,4112,4002,4107,4120,4099,4101,4121,4106,4120,4104,4076,4132,4109,0
1426.945,4125,4114,4006,4111,4121,4106,4108,4121,4115,4120,4108,4082,4128,4113,0
1426.953,4115,4110,3998,4109,4120,4099,4105,4109,4104,4120,4100,4073,4126,4107,0
1426.961,4109,4104,3990,4101,4118,4094,4103,4101,4097,4120,4099,4067,4132,4101,0
1426.969,4118,4106,3998,4107,4120,4100,4107,4105,4105,4120,4108,4076,4132,4109,0
1426.976,4129,4114,4004,4122,4121,4110,4113,4113,4113,4120,4107,4083,4122,4119,0
1426.984,4117,4109,3993,4107,4121,4108,4109,4110,4107,4120,4094,4076,4125,4108,0
1426.992,4106,4097,3983,4085,4121,4096,4100,4104,4103,4120,4094,4066,4136,4097,0
1427,4119,4101,3989,4107,4121,4098,4104,4116,4116,4120,4109,4072,4139,4104,0
1427.008,4129,4115,3995,4128,4120,4111,4115,4129,4124,4120,4111,4082,4138,4112,0
1427.016,4120,4112,3988,4110,4118,4111,4108,4105,4102,4120,4092,4075,4133,4104,0
1427.024,4117,4104,3985,4098,4119,4104,4095,4083,4084,4120,4086,4066,4125,4102,0
1427.032,4122,4112,3991,4111,4121,4107,4105,4105,4100,4120,4101,4072,4124,4107,0
1427.039,4121,4122,3992,4120,4120,4112,4118,4124,4114,4120,4108,4078,4127,4108,0
1427.047,4125,4122,3990,4120,4118,4110,4112,4114,4106,4120,4111,4081,4131,4114,0
1427.055,4131,4122,3994,4121,4121,4109,4107,4113,4109,4120,4117,4088,4137,4125,0
1427.063,4126,4117,3992,4114,4124,4110,4110,4127,4122,4120,4114,4088,4138,4126,0
1427.071,4119,4107,3986,4104,4120,4108,4109,4120,4117,4120,4107,4082,4136,4120,4
1427.079,4122,4111,3987,4113,4117,4105,4109,4101,4108,4120,4109,4086,4138,4123,0
1427.087,4125,4123,3992,4127,4120,4104,4112,4111,4122,4119,4112,4093,4138,4126,0
1427.095,4123,4118,3990,4119,4121,4108,4111,4136,4131,4119,4114,4091,4137,4124,0
1427.102,4122,4105,3986,4107,4118,4109,4104,4129,4112,4120,4124,4087,4138,4123,0
1427.11,4119,4108,3983,4114,4116,4103,4098,4102,4097,4120,4117,4083,4138,4120,0
1427.118,4125,4120,3986,4127,4121,4107,4107,4105,4108,4119,4108,4088,4138,4125,0
1427.126,4139,4125,3996,4137,4122,4123,4126,4130,4131,4121,4123,4102,4138,4139,0
1427.134,4142,4124,3996,4141,4120,4127,4131,4136,4135,4123,4132,4109,4138,4144,0
1427.142,4138,4125,3990,4132,4121,4116,4121,4127,4126,4121,4123,4106,4138,4139,0
1427.15,4135,4123,3986,4124,4123,4108,4113,4127,4125,4119,4125,4103,4137,4140,0
1427.158,4130,4117,3982,4125,4120,4112,4113,4130,4126,4120,4129,4099,4137,4142,0
1427.165,4122,4113,3973,4125,4115,4119,4119,4125,4123,4121,4124,4095,4135,4134,0
1427.173,4111,4109,3965,4113,4118,4116,4114,4120,4119,4119,4117,4093,4126,4123,0
1427.181,4108,4108,3964,4102,4121,4105,4106,4125,4123,4119,4108,4090,4121,4119,0
1427.189,4120,4116,3968,4111,4118,4109,4115,4128,4124,4120,4108,4089,4129,4122,0
1427.197,4127,4128,3971,4132,4117,4121,4125,4119,4121,4119,4121,4096,4138,4129,0
1427.205,4126,4133,3975,4142,4120,4121,4124,4124,4130,4119,4130,4102,4137,4136,0
1427.213,4129,4131,3976,4134,4121,4118,4127,4137,4141,4120,4128,4103,4135,4140,0
1427.221,4129,4127,3971,4125,4119,4123,4128,4131,4136,4120,4125,4100,4137,4139,0
1427.228,4124,4124,3969,4123,4120,4117,4115,4120,4125,4120,4122,4096,4139,4139,0
1427.236,4125,4124,3971,4126,4121,4109,4107,4118,4121,4120,4123,4095,4139,4138,0
1427.244,4125,4126,3968,4130,4121,4115,4114,4117,4115,4120,4123,4091,4138,4136,0
1427.252,4124,4128,3967,4129,4120,4125,4121,4123,4117,4120,4123,4090,4137,4140,0
1427.26,4128,4128,3970,4123,4118,4125,4132,4136,4135,4120,4128,4097,4138,4142,0
1427.268,4123,4124,3965,4119,4120,4122,4135,4138,4141,4120,4124,4099,4136,4133,0
1427.276,4115,4122,3958,4119,4120,4124,4127,4134,4132,4120,4114,4091,4134,4131,0
1427.284,4111,4125,3958,4120,4118,4126,4127,4140,4136,4120,4116,4090,4137,4136,0
1427.291,4107,4124,3961,4122,4120,4123,4127,4139,4136,4119,4124,4092,4139,4129,0
1427.299,4111,4120,3965,4123,4119,4121,4122,4122,4118,4119,4122,4089,4140,4124,0
1427.307,4123,4129,3970,4121,4114,4121,4122,4113,4114,4120,4121,4095,4140,4138,0
1427.315,4124,4137,3970,4123,4115,4113,4123,4121,4126,4120,4121,4102,4137,4142,0
1427.323,4115,4126,3967,4126,4121,4111,4121,4129,4133,4119,4121,4098,4145,4128,0
1427.331,4116,4121,3967,4122,4121,4122,4131,4135,4138,4121,4128,4096,4153,4125,0
1427.339,4112,4124,3961,4111,4119,4124,4136,4143,4143,4123,4127,4097,4144,4127,0
1427.347,4099,4116,3955,4106,4119,4116,4129,4137,4135,4121,4112,4091,4135,4118,0
1427.355,4099,4108,3955,4109,4122,4113,4124,4124,4123,4120,4106,4084,4137,4108,0
1427.363,4107,4118,3955,4117,4122,4116,4120,4125,4116,4121,4110,4084,4136,4110,0
1427.37,4109,4126,3957,4119,4117,4122,4119,4128,4111,4122,4115,4087,4135,4119,0
1427.378,4108,4123,3959,4115,4116,4119,4121,4115,4107,4120,4120,4087,4135,4124,0
1427.386,4109,4122,3955,4113,4120,4107,4114,4105,4102,4119,4118,4082,4128,4118,0
1427.394,4106,4123,3952,4118,4119,4106,4111,4115,4105,4120,4105,4079,4122,4109,0
1427.402,4100,4123,3956,4122,4117,4109,4118,4123,4113,4123,4102,4080,4122,4108,0
1427.41,4101,4121,3956,4119,4118,4106,4124,4117,4121,4122,4111,4081,4127,4113,0
1427.418,4107,4121,3954,4114,4118,4114,4132,4120,4129,4120,4113,4081,4135,4113,0
1427.426,4106,4120,3957,4111,4118,4127,4140,4138,4138,4119,4104,4081,4140,4111,0
1427.433,4099,4122,3956,4113,4120,4129,4143,4143,4144,4120,4105,4082,4139,4110,0
1427.441,4095,4123,3951,4114,4120,4123,4141,4127,4132,4119,4117,4080,4138,4108,0
1427.449,4092,4115,3948,4109,4121,4121,4136,4118,4113,4119,4119,4075,4138,4107,0
1427.457,4092,4108,3953,4108,4121,4121,4126,4123,4107,4120,4108,4077,4133,4109,0
1427.465,4089,4108,3951,4102,4118,4115,4120,4119,4104,4120,4094,4074,4123,4102,0
1427.473,4081,4103,3943,4093,4118,4107,4120,4103,4095,4120,4084,4059,4118,4088,0
1427.481,4089,4106,3956,4110,4121,4112,4121,4104,4094,4120,4097,4066,4129,4094,0
1427.489,4108,4120,3977,4132,4121,4125,4132,4125,4117,4120,4122,4091,4139,4111,0
1427.496,4111,4123,3977,4126,4117,4123,4142,4136,4137,4120,4121,4095,4136,4115,0
1427.504,4108,4121,3971,4124,4121,4120,4139,4130,4133,4120,4109,4089,4137,4117,0
1427.512,4111,4124,3975,4136,4124,4128,4140,4131,4130,4119,4121,4097,4139,4125,0
1427.52,4107,4119,3972,4127,4120,4128,4142,4139,4138,4120,4129,4098,4130,4125,0
1427.528,4104,4111,3963,4116,4118,4114,4131,4133,4129,4120,4114,4090,4122,4120,0
1427.536,4104,4112,3964,4123,4120,4111,4124,4121,4116,4119,4111,4089,4128,4122,0
1427.544,4097,4113,3961,4121,4119,4121,4132,4121,4123,4120,4125,4092,4129,4124,0
1427.552,4092,4107,3956,4116,4119,4123,4132,4117,4123,4121,4121,4089,4122,4126,0
