timestamp_ms,TP9,AF7,AF8,TP10,marker
0.0,0.94,2.47,-0.84,4.91,
3.91,4.17,1.17,-0.88,3.47,
7.81,-2.96,3.72,-6.15,14.27,
11.72,9.34,2.59,-1.88,11.80,
15.62,8.72,5.70,-5.28,19.75,
19.53,11.62,7.56,-5.01,20.41,
23.44,7.55,3.91,-9.82,21.22,
27.34,7.43,12.28,-12.37,16.24,
31.25,8.31,8.44,-9.90,20.94,
35.16,7.29,2.58,-17.13,14.93,
39.06,2.23,-2.93,-14.10,14.73,
42.97,-5.65,2.06,-13.63,17.93,
46.88,-7.14,-3.41,-18.01,5.27,
50.78,-10.39,-4.63,-17.23,6.85,
54.69,-19.40,-4.97,-22.96,-1.52,
58.59,-22.40,-3.75,-13.95,-0.67,
62.5,-22.68,-5.12,-14.06,0.43,
66.41,-24.56,-9.00,-14.08,-1.87,
70.31,-22.66,-6.12,-10.11,-3.91,
74.22,-21.54,-5.51,-16.43,-5.07,
78.12,-25.77,-1.22,-11.13,2.44,
82.03,-30.55,-2.87,-10.43,1.59,
85.94,-22.65,-4.49,-5.33,3.57,
89.84,-18.82,0.07,-10.21,9.55,
93.75,-13.63,-7.39,-6.58,11.08,
97.66,-7.51,-3.51,1.16,19.52,
101.56,-2.41,-7.54,-4.65,23.25,
105.47,2.08,-9.07,-0.09,27.04,
109.38,4.26,-2.62,-1.92,25.87,
113.28,-1.94,-5.20,-1.93,34.70,
117.19,1.31,-6.13,-5.64,27.58,
121.09,4.41,-6.16,3.54,27.66,
125.0,-0.11,-8.96,0.57,27.23,
128.91,-0.06,-8.70,-1.17,24.87,
132.81,3.97,-12.02,-1.28,25.47,
136.72,-1.56,-16.37,-2.72,19.13,
140.62,-4.72,-15.35,-0.55,8.51,
144.53,-13.16,-17.14,-4.64,3.54,
148.44,-8.17,-17.00,-9.57,2.48,
152.34,-13.83,-23.64,-6.48,-3.17,
156.25,-17.41,-17.57,-7.58,-8.02,
160.16,-15.18,-15.62,-12.27,-7.52,
164.06,-16.73,-11.00,-16.67,-7.95,
167.97,-17.10,-16.89,-6.14,-10.40,
171.88,-7.96,-16.43,-11.35,-11.16,
175.78,-14.35,-13.24,-13.58,-7.47,
179.69,-15.39,-5.65,-13.35,-0.45,
183.59,-8.23,-9.03,-3.26,-5.31,
187.5,-5.38,-9.89,-11.04,2.69,
191.41,7.52,-7.56,-16.82,2.72,
195.31,11.92,-4.19,-17.30,7.15,
199.22,16.68,1.68,-9.08,11.01,
203.12,12.57,-6.68,-9.93,13.80,
207.03,21.15,-5.39,-12.83,11.37,
210.94,18.21,-2.15,-15.67,13.22,
214.84,24.34,0.07,-7.96,16.81,
218.75,22.09,-7.37,-9.77,17.05,
222.66,25.54,-4.47,2.54,10.20,
226.56,22.75,-5.88,-7.99,14.41,
230.47,22.91,-11.85,-8.56,5.42,
234.38,17.58,-12.44,-14.31,-5.17,
238.28,11.42,-9.28,-6.83,-5.34,
242.19,4.14,-15.39,-7.30,-5.25,
246.09,7.00,-7.03,-9.37,-5.16,
250.0,0.09,-11.18,-10.89,-13.12,
253.91,-9.04,-8.25,-9.09,-13.76,
257.81,-7.05,-6.88,-5.14,-12.92,
261.72,-7.98,-8.85,-10.83,-16.22,
265.62,-7.48,-5.84,-5.27,-8.04,
269.53,-3.72,-7.06,-8.78,-11.88,
273.44,-4.70,-2.60,-12.85,0.62,
277.34,-1.94,-8.62,-8.40,-3.04,
281.25,-0.97,-0.77,-8.15,-4.14,
285.16,-1.28,0.63,-4.42,11.45,
289.06,11.04,-7.70,-4.79,3.45,
292.97,13.96,-0.97,-9.07,18.15,
296.88,14.35,-7.95,-3.15,12.08,
300.78,15.65,-4.55,1.84,11.22,
304.69,18.57,1.11,-2.94,16.30,
308.59,19.78,-7.81,3.32,15.05,
312.5,17.05,-2.01,5.54,12.29,
316.41,17.78,-11.26,8.54,9.43,
320.31,19.99,-11.03,8.21,5.78,
324.22,19.02,-12.46,10.15,3.81,
328.12,13.79,-15.68,5.88,-5.12,
332.03,8.08,-11.40,9.31,-2.97,
335.94,14.46,-14.44,5.24,-13.41,
339.84,3.89,-19.09,9.24,-15.54,
343.75,-0.62,-16.62,7.50,-14.50,
347.66,-2.71,-16.08,8.14,-19.59,
351.56,-6.69,-11.05,10.66,-21.81,
355.47,-2.10,-12.73,10.86,-26.99,
359.38,-8.27,-5.83,8.73,-24.11,
363.28,-10.50,-5.93,3.06,-25.43,
367.19,-7.77,-5.00,-2.80,-19.28,
371.09,-3.30,-5.66,5.30,-15.59,
375.0,-2.85,-4.21,2.96,-18.63,
378.91,1.39,-2.59,-0.11,-9.94,
382.81,6.34,3.95,-0.65,-8.10,
386.72,6.65,3.66,-0.55,0.26,
390.62,12.04,2.20,-2.87,-1.86,
394.53,18.04,-2.71,-0.50,2.11,
398.44,24.60,9.23,-3.94,0.94,
402.34,23.72,8.11,-7.91,2.47,
406.25,20.90,-5.81,-8.26,-4.08,
410.16,29.16,-1.10,-2.13,-5.20,
414.06,27.40,-2.23,3.44,-7.18,
417.97,21.88,1.09,0.65,-2.92,
421.88,22.22,-3.09,0.08,-12.21,
425.78,20.90,1.71,2.63,-11.21,
429.69,13.39,0.43,4.75,-12.36,
433.59,10.50,0.36,2.23,-17.56,
437.5,4.68,3.29,0.73,-18.51,
441.41,-1.85,1.04,10.53,-26.83,
445.31,-2.09,4.91,5.12,-19.04,
449.22,-0.84,0.25,4.35,-19.90,
453.12,-12.05,6.54,9.47,-18.54,
457.03,-10.80,9.51,6.96,-14.15,
460.94,-12.71,11.66,7.78,-14.38,
464.84,-11.91,11.37,6.17,-8.45,
468.75,-6.47,13.52,11.18,-4.17,
472.66,-6.47,14.31,9.32,0.10,
476.56,-6.96,10.70,8.42,-4.20,
480.47,-4.65,14.68,11.74,5.39,
484.38,0.90,12.87,4.70,3.45,
488.28,-2.04,7.83,9.50,8.93,
492.19,5.09,10.90,10.70,13.57,
496.09,3.51,8.36,6.09,5.30,
500.0,8.92,11.11,7.96,7.38,
503.91,10.84,-1.19,8.99,7.01,
507.81,5.68,8.36,12.01,2.67,
511.72,6.06,1.51,8.37,-4.24,
515.62,8.54,4.47,13.25,-7.78,
519.53,7.94,6.34,12.46,-11.52,
523.44,-4.25,1.03,10.25,-13.10,
527.34,-2.18,-4.99,20.10,-12.08,
531.25,-13.19,-4.57,14.29,-23.03,
535.16,-14.31,-7.56,15.40,-16.85,
539.06,-20.68,0.21,12.42,-21.70,
542.97,-21.35,7.95,18.11,-25.05,
546.88,-21.71,1.90,13.84,-22.29,
550.78,-25.75,5.30,19.08,-23.00,
554.69,-24.88,11.40,14.44,-13.67,
558.59,-26.79,5.20,24.56,-15.14,
562.5,-20.86,11.10,11.45,-11.50,
566.41,-24.52,5.55,10.12,-7.61,
570.31,-18.32,11.40,13.22,-6.41,
574.22,-19.54,8.92,9.53,-1.02,
578.12,-12.69,7.97,10.27,0.39,
582.03,-8.45,11.97,9.74,6.45,
585.94,-9.25,8.89,8.23,8.47,
589.84,-5.22,9.91,9.25,6.60,
593.75,2.67,10.09,4.69,8.83,
597.66,5.86,8.50,0.08,5.10,
601.56,11.24,6.81,0.59,2.19,
605.47,10.75,4.39,2.75,-1.65,
609.38,5.14,7.33,-0.39,-0.81,
613.28,10.47,5.49,0.06,-7.40,
617.19,9.16,8.95,0.17,-6.92,
621.09,0.39,6.70,0.20,-9.97,
625.0,-0.08,4.53,-0.34,-13.81,
628.91,-7.24,9.32,-5.76,-10.67,
632.81,-5.09,11.00,-2.25,-15.73,
636.72,-11.63,5.38,2.37,-10.05,
640.62,-15.29,12.69,3.59,-9.17,
644.53,-13.70,15.68,2.25,-8.90,
648.44,-18.33,21.59,4.64,-7.20,
652.34,-22.55,11.68,7.81,-4.09,
656.25,-23.81,12.76,4.58,6.08,
660.16,-23.30,13.78,9.42,7.80,
664.06,-16.48,21.18,9.62,9.20,
667.97,-15.81,19.96,8.42,12.60,
671.88,-9.22,16.31,9.23,20.10,
675.78,-6.14,17.06,9.50,24.36,
679.69,0.67,18.84,12.31,20.20,
683.59,8.87,9.25,8.75,21.63,
687.5,5.60,12.14,4.96,23.62,
691.41,4.95,7.91,4.80,18.70,
695.31,3.92,6.98,6.00,20.24,
699.22,3.50,-0.08,4.37,18.54,
703.12,4.86,10.56,7.07,6.98,
707.03,3.39,2.99,1.10,13.36,
710.94,1.38,3.35,8.12,1.74,
714.84,-0.95,-0.10,4.03,0.84,
718.75,-0.72,-3.72,2.41,-7.08,
722.66,-10.80,-1.53,-2.52,-5.81,
726.56,-1.99,6.49,-0.28,-10.55,
730.47,-9.29,4.64,0.01,-10.13,
734.38,-8.00,1.81,-0.22,-8.87,
738.28,-15.65,-0.22,0.60,-11.26,
742.19,-20.30,9.14,3.78,-5.68,
746.09,-23.49,3.12,4.97,-4.02,
750.0,-16.60,0.27,1.23,6.45,
753.91,-26.22,8.06,-3.19,4.77,
757.81,-18.96,6.80,-6.91,3.10,
761.72,-17.45,3.98,-0.05,11.73,
765.62,-15.83,1.96,0.01,16.18,
769.53,-6.40,6.52,0.32,16.86,
773.44,-3.47,0.24,1.66,14.65,
777.34,2.22,-2.82,-1.74,15.17,
781.25,9.24,-1.70,3.67,20.40,
785.16,4.99,-5.65,1.38,16.04,
789.06,10.64,-3.91,-2.72,13.27,
792.97,16.03,-5.54,-11.42,15.16,
796.88,16.82,-0.63,-8.66,5.85,
800.78,24.11,-9.41,-8.74,9.14,
804.69,19.87,-9.37,-7.90,3.60,
808.59,24.08,-2.03,-0.93,-3.59,
812.5,18.68,-6.07,-8.04,1.54,
816.41,18.80,-4.01,-15.03,-8.56,
820.31,18.94,1.23,-14.66,-0.33,
824.22,13.01,4.14,-19.58,-4.97,
828.12,8.20,3.79,-12.37,-4.60,
832.03,5.01,10.78,-13.39,3.20,
835.94,1.94,7.72,-9.96,3.86,
839.84,3.60,3.79,-13.19,9.81,
843.75,-3.68,10.36,-16.27,8.61,
847.66,-1.96,13.14,-12.35,17.90,
851.56,-3.83,7.43,-15.60,17.30,
855.47,2.05,6.53,-6.35,21.93,
859.38,0.91,9.53,-11.15,20.86,
863.28,8.04,5.65,-14.16,27.60,
867.19,6.04,8.07,-8.32,26.77,
871.09,7.92,-2.09,-6.77,24.17,
875.0,11.03,-5.62,-7.83,22.67,
878.91,15.86,-4.73,-5.88,26.61,
882.81,20.18,-5.77,-2.68,26.84,
886.72,23.35,-4.67,-8.40,16.24,
890.62,17.65,-8.75,0.84,11.78,
894.53,26.38,-11.63,1.51,4.47,
898.44,23.73,-8.07,1.16,4.07,
902.34,29.08,-11.02,-2.30,-8.23,
906.25,26.40,-11.01,-5.23,0.12,
910.16,21.83,-9.44,-6.96,-5.74,
914.06,12.66,-12.93,-0.65,-15.65,
917.97,12.18,-7.55,1.13,-9.54,
921.88,0.06,-10.90,-6.12,-9.66,
925.78,4.96,-13.75,-8.59,-7.02,
929.69,2.72,-1.87,-10.01,-4.93,
933.59,-0.21,-3.63,-7.81,-3.27,
937.5,-10.44,-11.56,-8.02,-3.78,
941.41,-10.03,-9.21,-12.96,1.28,
945.31,-13.93,-7.80,-11.65,3.73,
949.22,-13.02,-6.45,-7.17,5.34,
953.12,-6.02,-7.18,-20.93,7.59,
957.03,-9.66,-8.72,-12.39,13.38,
960.94,-3.10,-15.09,-14.99,9.57,
964.84,-2.18,-14.11,-11.89,11.43,
968.75,4.77,-12.29,-7.29,15.18,
972.66,6.48,-14.17,-9.56,9.62,
976.56,13.56,-11.93,-4.89,9.40,
980.47,14.09,-16.44,-10.27,8.22,
984.38,15.64,-18.50,-4.49,3.47,
988.28,18.37,-15.12,-8.92,0.25,
992.19,19.29,-20.87,-9.19,-7.60,
996.09,20.48,-19.81,-6.22,-5.23,
1000.0,20.12,-15.28,-7.76,-16.13,
1003.91,14.52,-13.85,-8.17,-12.52,
1007.81,12.51,-11.23,-10.92,-16.68,
1011.72,13.58,-10.38,-6.45,-11.70,
1015.62,11.40,-6.89,-13.17,-15.76,
1019.53,1.13,2.58,-14.52,-11.89,
1023.44,0.80,-5.28,-13.72,-14.35,
1027.34,-4.56,-7.26,-12.99,-7.62,
1031.25,-6.64,-1.42,-14.94,0.85,
1035.16,-8.15,-0.74,-17.62,3.84,
1039.06,-9.85,0.07,-12.94,5.10,
1042.97,-8.79,-2.44,-9.97,11.84,
1046.88,-7.91,-5.30,-17.14,9.89,
1050.78,-9.16,-1.19,-16.12,17.47,
1054.69,-6.70,-9.59,-14.17,7.28,
1058.59,-6.61,-6.35,-13.63,14.11,
1062.5,-2.72,-7.70,-6.09,17.70,
1066.41,-1.90,-3.34,-14.04,9.53,
1070.31,9.19,-14.88,-5.85,5.18,
1074.22,7.06,-9.58,-0.75,2.69,
1078.12,9.72,-7.78,-4.78,-1.73,
1082.03,11.56,-9.71,0.47,-6.79,
1085.94,11.40,-9.06,-0.88,-9.27,
1089.84,12.79,-11.87,-1.08,-11.91,
1093.75,8.70,-5.78,3.51,-21.11,
1097.66,11.01,-8.06,6.47,-17.14,
1101.56,6.35,-9.84,3.43,-26.01,
1105.47,1.72,-5.96,6.07,-26.00,
1109.38,-2.34,-4.89,4.99,-28.04,
1113.28,-5.07,-5.95,3.43,-21.80,
1117.19,-6.72,-4.44,6.85,-21.11,
1121.09,-13.91,-1.54,10.95,-20.05,
1125.0,-16.73,-1.53,4.22,-20.67,
1128.91,-19.01,-9.09,9.63,-11.28,
1132.81,-24.09,-4.78,8.36,-13.21,
1136.72,-30.17,-7.54,1.04,-10.01,
1140.62,-27.27,-6.39,-1.96,0.83,
1144.53,-31.93,-11.84,0.27,-2.19,
1148.44,-25.52,-11.17,-5.24,-1.86,
1152.34,-26.93,-9.02,-4.74,3.14,
1156.25,-20.44,-8.65,-1.58,3.06,
1160.16,-16.63,-14.30,-5.85,-5.84,
1164.06,-14.42,-15.48,-4.39,-0.64,
1167.97,-15.56,-16.85,-6.91,-6.33,
1171.88,-7.31,-17.24,-5.72,-12.88,
1175.78,-10.92,-11.17,-9.51,-12.79,
1179.69,-5.88,-16.68,-6.27,-15.65,
1183.59,3.46,-9.84,-5.11,-15.20,
1187.5,5.17,-8.36,-4.61,-17.00,
1191.41,7.56,-5.74,2.99,-19.16,
1195.31,4.34,-8.93,-4.50,-23.13,
1199.22,-4.51,-5.30,2.65,-25.07,
1203.12,0.09,-5.44,-0.23,-19.10,
1207.03,-3.46,1.51,7.51,-16.42,
1210.94,-9.67,6.42,1.59,-17.63,
1214.84,-10.09,7.24,0.96,-12.79,
1218.75,-11.58,7.69,4.47,-7.19,
1222.66,-18.00,9.57,6.73,-10.19,
1226.56,-16.84,7.18,4.99,-4.00,
1230.47,-20.30,2.47,11.35,-1.24,
1234.38,-22.26,10.08,8.09,7.72,
1238.28,-15.53,5.30,3.11,10.76,
1242.19,-16.58,4.67,2.28,13.71,
1246.09,-15.25,0.86,8.17,6.40,
1250.0,-15.67,0.92,3.66,7.87,
1253.91,-12.67,5.85,6.22,10.85,
1257.81,-3.72,2.10,5.42,8.19,
1261.72,2.17,5.66,9.27,6.43,
1265.62,4.24,-2.39,7.85,0.20,
1269.53,5.00,1.65,4.19,-3.38,
1273.44,10.65,-0.72,6.56,-10.61,
1277.34,7.88,5.73,5.55,-15.03,
1281.25,10.20,6.38,7.31,-20.03,
1285.16,10.82,6.09,9.53,-22.94,
1289.06,14.65,5.33,17.61,-24.80,
1292.97,9.68,9.51,7.93,-20.71,
1296.88,15.42,8.78,12.42,-24.91,
1300.78,7.21,15.06,15.85,-25.18,
1304.69,8.44,14.80,15.85,-22.59,
1308.59,0.20,9.16,16.91,-18.86,
1312.5,-10.65,14.21,17.05,-11.33,
1316.41,-8.21,11.52,20.58,-9.62,
1320.31,-10.45,19.79,17.24,-6.31,
1324.22,-9.07,6.61,14.86,-7.24,
1328.12,-14.89,9.54,20.15,-3.46,
1332.03,-14.81,9.73,17.28,3.68,
1335.94,-16.18,5.65,18.84,2.58,
1339.84,-18.11,-0.66,17.86,8.82,
1343.75,-16.31,2.42,10.11,10.26,
1347.66,-14.98,0.69,16.72,4.96,
1351.56,-6.84,-0.27,11.89,7.59,
1355.47,-10.49,0.56,10.32,7.00,
1359.38,-3.41,-2.50,9.53,1.14,
1363.28,-2.22,-1.76,10.53,-1.86,
1367.19,2.60,1.60,-0.44,-10.90,
1371.09,8.72,0.99,4.32,-10.00,
1375.0,11.22,-2.43,3.06,-14.52,
1378.91,13.42,4.10,-3.89,-12.97,
1382.81,17.59,9.66,-3.87,-11.29,
1386.72,11.98,2.73,4.99,-10.30,
1390.62,12.85,9.13,1.99,-10.77,
1394.53,20.76,11.88,-8.73,-10.24,
1398.44,9.87,10.82,0.75,-8.50,
1402.34,6.35,16.61,3.24,-4.99,
1406.25,8.84,15.33,6.20,-2.04,
1410.16,6.22,11.92,6.99,4.96,
1414.06,-5.72,13.97,-0.59,9.33,
1417.97,-1.52,12.47,1.61,10.86,
1421.88,-5.78,12.49,11.25,20.08,
1425.78,-5.84,16.43,4.54,23.04,
1429.69,-5.30,12.58,11.70,21.08,
1433.59,-1.83,11.07,18.01,23.32,
1437.5,1.02,12.33,8.05,28.33,
1441.41,-3.67,3.12,14.71,26.40,
1445.31,2.71,8.65,17.24,23.25,
1449.22,4.20,11.49,8.86,16.49,
1453.12,7.02,2.82,8.92,18.21,
1457.03,11.02,8.17,8.61,13.07,
1460.94,18.38,11.95,11.24,2.71,
1464.84,19.19,13.86,10.69,4.39,
1468.75,15.80,15.69,8.58,4.78,
1472.66,26.19,13.54,11.18,-7.56,
1476.56,31.88,12.60,12.18,-4.96,
1480.47,31.29,13.34,6.83,-7.90,
1484.38,23.22,14.64,9.50,-13.04,
1488.28,31.65,14.93,6.98,-12.08,
1492.19,26.84,18.40,8.88,-3.00,
1496.09,25.92,17.46,1.41,-0.66,
1500.0,14.41,14.93,7.07,-0.18,
1503.91,18.88,15.27,-0.27,1.25,
1507.81,10.23,12.89,9.11,5.14,
1511.72,1.11,13.69,1.64,14.74,
1515.62,2.26,6.19,8.61,20.21,
1519.53,-7.98,11.06,7.16,16.57,
1523.44,-3.64,7.72,3.98,22.50,
1527.34,-10.57,10.05,10.95,16.08,
1531.25,-7.46,6.51,5.12,19.59,
1535.16,-8.62,4.05,4.87,19.55,
1539.06,-4.87,-1.47,4.02,14.17,
1542.97,-9.32,-5.42,1.19,13.85,
1546.88,-1.49,-2.37,3.38,10.23,
1550.78,-2.53,-6.95,1.44,12.30,
1554.69,-0.68,-2.60,2.34,14.17,
1558.59,1.23,-1.61,2.03,1.42,
1562.5,10.44,-0.97,-1.54,2.22,
1566.41,13.09,3.43,-1.69,3.14,
1570.31,13.15,-5.37,0.07,-2.96,
1574.22,12.14,4.44,-4.62,-0.21,
1578.12,14.73,4.90,-2.88,-1.43,
1582.03,11.19,6.27,-6.53,4.53,
1585.94,14.16,6.41,-10.44,-0.43,
1589.84,10.67,1.02,-13.05,3.49,
1593.75,7.15,5.23,-7.37,6.22,
1597.66,5.96,3.98,-12.23,12.15,
1601.56,-6.01,4.13,-14.19,12.64,
1605.47,-9.22,1.88,-18.23,21.92,
1609.38,-7.83,-2.73,-14.61,25.02,
1613.28,-12.03,0.48,-13.38,25.14,
1617.19,-17.85,0.18,-13.33,36.29,
1621.09,-15.11,-2.01,-7.81,27.86,
1625.0,-14.55,-4.07,-5.00,26.25,
1628.91,-14.06,1.35,-9.28,26.85,
1632.81,-12.37,-0.34,-10.23,25.08,
1636.72,-15.03,-4.66,-7.44,24.95,
1640.62,-4.70,5.67,-4.21,14.82,
1644.53,-9.11,3.25,-7.27,11.93,
1648.44,-4.23,4.51,-4.43,11.49,
1652.34,5.22,-0.20,1.08,-1.10,
1656.25,4.75,0.83,-7.21,0.40,
1660.16,9.47,-2.39,-3.12,-6.91,
1664.06,9.65,2.94,-1.45,-10.75,
1667.97,14.25,3.47,1.12,-10.56,
1671.88,15.90,5.23,3.75,-10.69,
1675.78,17.43,9.93,-3.76,-8.32,
1679.69,19.33,3.41,-0.26,-11.25,
1683.59,13.54,7.62,-3.16,-4.44,
1687.5,7.00,4.97,0.76,0.02,
1691.41,4.64,6.66,-2.91,-7.54,
1695.31,-0.63,-0.74,-6.40,-0.71,
1699.22,-1.97,4.97,-4.95,11.84,
1703.12,-7.18,1.54,-6.24,11.51,
1707.03,-11.83,-0.39,-3.76,7.47,
1710.94,-14.78,-3.54,-10.98,8.97,
1714.84,-12.34,-7.80,-5.32,11.21,
1718.75,-20.99,-6.63,-11.80,10.27,
1722.66,-24.19,-9.86,-13.64,12.53,
1726.56,-29.52,-13.71,-12.43,9.13,
1730.47,-25.51,-15.68,-11.73,12.73,
1734.38,-25.61,-14.48,-8.89,6.26,
1738.28,-19.81,-15.26,-11.53,1.51,
1742.19,-23.57,-15.96,-17.05,2.07,
1746.09,-11.61,-15.78,-8.37,2.00,
1750.0,-12.81,-8.90,-9.25,-9.29,
1753.91,-11.14,-13.69,-11.11,-18.20,
1757.81,-3.37,-12.15,-8.20,-14.45,
1761.72,6.43,-15.34,-12.14,-12.13,
1765.62,6.27,-12.63,-3.75,-17.09,
1769.53,4.07,-8.88,-2.59,-8.10,
1773.44,-1.61,0.02,-12.87,-12.57,
1777.34,5.04,-10.93,-11.80,-8.61,
1781.25,-0.57,-7.77,-12.64,-5.15,
1785.16,-2.30,-4.89,-10.09,-5.82,
1789.06,-7.00,-11.95,-7.88,-3.25,
1792.97,-8.67,-14.13,-8.85,7.83,
1796.88,-13.14,-10.37,-14.52,10.92,
1800.78,-17.35,-10.65,-14.14,4.21,
1804.69,-21.86,-9.19,-10.69,13.92,
1808.59,-23.30,-15.48,-13.75,16.33,
1812.5,-27.77,-13.01,-12.36,11.65,
1816.41,-26.45,-13.82,-14.09,12.09,
1820.31,-27.59,-16.49,-15.05,12.44,
1824.22,-25.17,-18.73,-19.16,9.93,
1828.12,-26.90,-13.13,-16.38,2.33,
1832.03,-20.39,-7.64,-13.56,-1.18,
1835.94,-21.34,-9.71,-9.89,-3.18,
1839.84,-9.29,-8.19,-15.85,-9.85,
1843.75,-6.69,-5.70,-11.87,-14.36,
1847.66,-2.51,-2.27,-5.68,-16.18,
1851.56,2.13,-7.45,-10.22,-21.61,
1855.47,8.27,-1.64,-3.43,-28.15,
1859.38,4.39,1.83,-3.44,-28.88,
1863.28,14.31,0.21,7.20,-21.44,
1867.19,14.69,-0.43,0.56,-24.71,
1871.09,10.35,3.00,2.00,-30.95,
1875.0,12.78,-2.50,5.18,-20.31,
1878.91,18.21,-5.40,-0.21,-13.89,
1882.81,9.98,-4.76,1.90,-15.94,
1886.72,11.04,0.53,-1.14,-11.01,
1890.62,6.41,-4.02,5.95,-6.43,
1894.53,1.26,-9.15,-2.50,-4.96,
1898.44,-0.39,-4.60,1.10,5.45,
1902.34,-3.93,-10.29,2.41,-2.88,
1906.25,-5.96,-16.33,2.15,0.89,
1910.16,-8.25,-10.72,-4.97,-2.27,
1914.06,-5.73,-10.46,-4.28,0.53,
1917.97,-9.91,-6.51,-0.49,-1.47,
1921.88,-12.28,-7.10,-5.40,-7.93,
1925.78,-13.50,-14.80,-7.34,-6.10,
1929.69,-5.18,-8.24,-6.78,-9.20,
1933.59,1.47,-8.21,-3.21,-19.50,
1937.5,-4.38,-12.28,-16.59,-17.73,
1941.41,5.51,-10.65,-8.26,-22.99,
1945.31,3.45,-7.21,-12.45,-18.67,
1949.22,2.64,-6.21,-10.09,-18.62,
1953.12,13.80,-12.70,-15.39,-26.02,
1957.03,12.58,-6.51,-7.32,-19.94,
1960.94,11.85,-11.10,-5.77,-21.03,
1964.84,16.66,-7.64,-6.02,-12.62,
1968.75,12.22,-9.69,-2.46,-8.83,
1972.66,15.68,-10.33,-9.23,-8.73,
1976.56,10.90,-0.74,4.94,-4.58,
1980.47,13.71,-8.47,2.43,-1.06,
1984.38,9.46,-4.92,1.87,9.25,
1988.28,0.98,-11.51,-1.86,8.74,
1992.19,0.86,-8.74,-1.95,8.52,
1996.09,5.75,-6.12,-3.55,11.55,
2000.0,-1.84,-12.72,-0.86,13.05,1
2003.91,-6.67,-9.44,2.16,17.59,
2007.81,-11.65,-12.06,4.22,11.27,
2011.72,-14.12,-5.77,-1.78,6.61,
2015.62,-11.03,-10.50,5.83,-3.72,
2019.53,-11.44,-9.47,4.84,4.11,
2023.44,-5.09,-0.68,-4.68,-4.25,
2027.34,-8.86,-3.90,2.55,-8.73,
2031.25,2.86,-6.52,-0.79,-17.52,
2035.16,-2.19,4.64,2.29,-12.01,
2039.06,10.61,3.93,-0.99,-16.63,
2042.97,9.41,2.04,-1.17,-21.29,
2046.88,19.55,7.43,6.51,-22.44,
2050.78,18.36,16.74,9.05,-22.14,
2054.69,20.41,4.66,5.73,-22.47,
2058.59,26.80,10.97,6.95,-16.29,
2062.5,27.92,7.94,4.59,-15.17,
2066.41,24.36,12.00,10.40,-13.62,
2070.31,24.82,3.92,6.31,-14.55,
2074.22,25.89,7.09,8.34,-3.09,
2078.12,23.99,7.55,14.15,1.24,
2082.03,15.88,8.44,8.32,-0.77,
2085.94,20.31,7.32,16.85,5.05,
2089.84,17.83,-0.35,14.84,6.78,
2093.75,15.96,6.55,19.53,5.62,
2097.66,13.05,4.32,13.77,15.27,
2101.56,-1.12,0.01,16.17,4.71,
2105.47,2.19,3.46,16.97,11.91,
2109.38,-6.10,7.02,13.62,8.49,
2113.28,3.54,10.37,14.70,-2.02,
2117.19,-1.30,4.06,8.90,0.76,
2121.09,-4.30,9.45,15.78,-5.25,
2125.0,0.09,5.36,10.05,2.15,
2128.91,-0.67,7.20,12.82,-10.58,
2132.81,2.87,3.89,11.80,-8.91,
2136.72,9.04,4.02,8.13,-10.99,
2140.62,9.52,4.84,4.92,-14.32,
2144.53,13.47,9.31,2.69,-7.94,
2148.44,15.31,10.54,3.77,-5.48,
2152.34,14.28,7.45,4.33,-5.10,
2156.25,21.44,9.96,-0.44,0.73,
2160.16,17.30,9.59,6.07,5.53,
2164.06,24.02,0.88,-1.21,5.88,
2167.97,14.10,5.38,-0.43,14.44,
2171.88,15.54,4.21,-1.85,16.94,
2175.78,11.16,2.82,2.05,23.16,
2179.69,3.48,-0.37,4.96,23.48,
2183.59,3.31,-0.89,0.18,20.18,
2187.5,-5.05,1.89,7.79,19.41,
2191.41,-6.54,-0.82,3.64,31.30,
2195.31,-11.38,2.26,15.82,21.78,
2199.22,-16.81,4.97,5.49,21.54,
2203.12,-18.18,4.53,11.82,15.52,
2207.03,-17.19,5.59,8.49,12.49,
2210.94,-22.48,1.31,15.69,9.46,
2214.84,-21.52,3.53,11.95,10.63,
2218.75,-17.24,3.75,10.57,3.95,
2222.66,-18.88,8.88,11.14,-5.70,
2226.56,-14.25,11.23,17.08,-5.02,
2230.47,-14.02,16.07,17.44,-9.33,
2234.38,-12.49,13.89,8.91,-3.54,
2238.28,-7.70,15.34,16.80,-6.17,
2242.19,-1.38,14.60,11.15,-8.79,
2246.09,7.97,16.72,6.91,-3.44,
2250.0,9.33,16.37,12.53,-3.73,
2253.91,4.58,16.35,6.07,-2.61,
2257.81,6.49,16.85,9.42,-1.07,
2261.72,6.72,14.90,9.73,6.89,
2265.62,2.09,17.71,13.27,15.13,
2269.53,8.70,14.78,5.75,14.32,
2273.44,1.26,12.09,3.35,18.34,
2277.34,0.56,13.12,8.27,17.29,
2281.25,0.71,6.59,7.14,18.27,
2285.16,-3.21,9.42,9.08,21.74,
2289.06,-16.06,6.67,9.03,22.55,
2292.97,-10.62,13.44,8.47,18.29,
2296.88,-16.66,8.51,7.10,14.08,
2300.78,-17.89,8.38,10.07,7.41,
2304.69,-17.41,11.51,11.63,8.28,
2308.59,-20.71,14.64,9.99,12.34,
2312.5,-23.00,11.65,7.05,0.88,
2316.41,-19.89,11.54,12.55,-2.94,
2320.31,-13.66,9.08,8.52,2.32,
2324.22,-11.44,14.37,10.92,-1.26,
2328.12,-7.85,17.62,4.97,-3.64,
2332.03,-4.51,15.17,8.58,1.02,
2335.94,-4.62,8.04,9.34,-1.42,
2339.84,-1.70,11.02,2.67,3.97,
2343.75,5.22,10.37,3.92,4.16,
2347.66,7.59,0.63,-2.96,7.60,
2351.56,4.42,2.99,0.64,8.76,
2355.47,6.57,4.25,-2.76,13.24,
2359.38,4.66,5.62,-2.92,22.44,
2363.28,3.39,-4.98,-7.41,22.46,
2367.19,5.08,1.92,-5.97,23.00,
2371.09,-1.60,-3.59,-8.96,23.64,
2375.0,-4.30,-3.85,-6.51,23.70,
2378.91,-13.09,6.61,-11.94,28.60,
2382.81,-12.50,-7.42,-4.18,26.11,
2386.72,-17.31,1.24,-11.48,22.38,
2390.62,-22.34,-7.70,-7.73,21.91,
2394.53,-23.68,-0.65,-5.13,17.46,
2398.44,-27.08,2.25,-8.77,16.11,
2402.34,-28.13,2.25,0.03,0.41,
2406.25,-28.32,0.17,1.03,1.33,
2410.16,-18.71,-1.80,-1.64,-2.93,
2414.06,-23.56,2.37,-2.63,-10.97,
2417.97,-22.03,0.65,-3.87,-8.20,
2421.88,-19.27,9.03,-2.79,-9.22,
2425.78,-13.94,5.53,-0.11,-11.73,
2429.69,-7.95,5.47,5.65,-12.28,
2433.59,-1.04,6.49,3.14,-15.27,
2437.5,-6.28,7.06,3.26,-7.70,
2441.41,-0.22,4.72,2.06,-5.06,
2445.31,4.41,9.82,1.57,0.50,
2449.22,4.38,1.76,0.54,4.24,
2453.12,10.47,2.46,2.97,0.52,
2457.03,14.07,5.16,1.16,6.86,
2460.94,11.60,-0.47,-0.51,7.88,
2464.84,7.57,-2.11,1.01,10.22,
2468.75,5.56,-3.07,-7.00,16.89,
2472.66,6.05,1.19,-5.42,16.67,
2476.56,2.28,3.00,-5.14,11.32,
2480.47,-2.54,-0.81,-5.60,14.20,
2484.38,0.96,-0.23,-3.66,-0.92,
2488.28,-7.45,0.96,-5.53,5.40,
2492.19,-8.06,-0.36,-11.28,6.35,
2496.09,-5.69,5.76,-9.33,-4.59,
2500.0,-7.75,2.51,-10.04,-6.58,
2503.91,-10.79,0.55,-10.50,-13.83,
2507.81,-5.70,6.02,-12.03,-17.74,
2511.72,-4.08,4.25,-9.48,-18.09,
2515.62,-8.06,8.35,-9.92,-13.49,
2519.53,1.00,3.76,-12.79,-16.29,
2523.44,1.03,-1.81,-10.76,-19.35,
2527.34,7.74,-2.10,-11.90,-12.38,
2531.25,13.03,-4.20,-2.10,-7.09,
2535.16,20.04,-4.62,-5.37,-3.60,
2539.06,16.68,-7.78,0.64,-3.40,
2542.97,23.53,-8.52,-5.82,-1.29,
2546.88,20.52,-6.57,-8.11,-2.01,
2550.78,24.10,-12.46,-7.13,9.70,
2554.69,24.55,-13.36,-9.10,7.97,
2558.59,19.60,-17.57,-14.84,15.64,
2562.5,22.91,-14.18,-13.57,12.53,
2566.41,15.25,-13.30,-11.19,19.16,
2570.31,10.00,-17.51,-17.57,8.40,
2574.22,8.44,-17.64,-16.31,5.74,
2578.12,5.39,-16.92,-12.92,8.77,
2582.03,-3.09,-14.02,-18.21,7.76,
2585.94,-2.81,-15.63,-18.20,-5.80,
2589.84,-1.86,-6.54,-22.51,-6.76,
2593.75,-8.21,-13.41,-13.75,-6.94,
2597.66,-9.91,-4.20,-17.11,-15.80,
2601.56,-8.66,-11.57,-12.36,-17.06,
2605.47,-9.90,-9.00,-18.68,-21.21,
2609.38,-11.13,-7.81,-16.48,-22.46,
2613.28,-1.70,-5.11,-14.02,-27.44,
2617.19,-2.64,-7.47,-10.72,-27.11,
2621.09,-1.09,-7.12,-6.49,-18.86,
2625.0,8.00,-11.07,-4.62,-25.16,
2628.91,7.12,-7.45,-11.24,-17.61,
2632.81,12.86,-8.29,-7.85,-14.32,
2636.72,17.70,-11.36,-0.91,-21.38,
2640.62,19.75,-11.31,-4.65,-9.34,
2644.53,21.88,-13.79,-1.35,-6.68,
2648.44,22.39,-8.29,-1.36,0.27,
2652.34,17.22,-11.20,-4.39,-1.23,
2656.25,22.33,-5.86,1.35,-2.25,
2660.16,21.45,-11.33,1.61,3.29,
2664.06,19.17,-15.86,1.28,0.11,
2667.97,9.70,-14.49,0.43,-2.49,
2671.88,7.44,-8.76,-1.18,-3.10,
2675.78,10.98,-7.02,4.52,-2.10,
2679.69,5.95,-7.64,-3.17,-11.70,
2683.59,1.46,-4.22,-2.25,-11.33,
2687.5,-1.55,-3.77,-7.85,-16.79,
2691.41,-1.44,-2.08,-6.46,-15.78,
2695.31,-2.82,-5.20,-7.82,-23.36,
2699.22,-4.26,0.87,-7.23,-17.39,
2703.12,-4.52,-1.10,-8.05,-20.24,
2707.03,-4.22,1.52,-8.59,-23.35,
2710.94,0.62,0.95,-9.89,-20.48,
2714.84,2.40,-7.48,-11.77,-20.34,
2718.75,9.42,-5.98,-9.65,-15.30,
2722.66,9.38,-2.43,-12.39,-14.97,
2726.56,15.76,-7.04,-13.65,-6.92,
2730.47,18.01,-11.02,-15.56,-3.21,
2734.38,20.77,-10.08,-5.35,-7.75,
2738.28,25.95,-7.87,-11.47,6.64,
2742.19,20.46,-16.37,-7.80,12.37,
2746.09,23.75,-14.06,-3.77,7.52,
2750.0,25.91,-10.11,-4.09,8.57,
2753.91,22.40,-14.16,-2.45,14.84,
2757.81,17.39,-17.60,0.99,11.68,
2761.72,13.22,-12.53,-1.77,11.45,
2765.62,8.47,-14.08,-3.74,5.10,
2769.53,2.33,-9.51,-2.65,2.96,
2773.44,-1.86,-9.64,0.59,5.31,
2777.34,-10.31,-10.61,0.49,-9.87,
2781.25,-5.07,-8.96,-3.62,-6.14,
2785.16,-20.43,-6.76,-4.34,-13.11,
2789.06,-15.46,-3.97,-0.33,-10.31,
2792.97,-18.23,-6.55,1.88,-19.57,
2796.88,-18.03,-16.77,-0.66,-21.51,
2800.78,-20.47,-6.63,0.52,-28.32,
2804.69,-8.69,-1.17,-1.15,-16.36,
2808.59,-15.48,-7.52,0.88,-25.80,
2812.5,-12.03,-1.63,-0.36,-23.14,
2816.41,-10.29,-6.09,-3.76,-22.82,
2820.31,-11.32,-7.77,2.47,-4.13,
2824.22,-2.07,-9.12,-1.33,-5.29,
2828.12,0.08,-5.95,1.69,-0.98,
2832.03,7.37,-7.25,2.67,0.73,
2835.94,1.07,-13.75,5.05,0.42,
2839.84,7.43,-6.20,9.54,2.85,
2843.75,7.05,-10.88,9.40,6.72,
2847.66,5.77,-5.97,10.18,10.07,
2851.56,2.57,-2.15,14.67,7.08,
2855.47,3.36,-2.86,14.65,15.07,
2859.38,-6.13,-6.39,12.75,4.45,
2863.28,-8.60,1.09,11.69,8.61,
2867.19,-7.14,7.57,21.00,-0.69,
2871.09,-21.47,12.11,15.31,-1.49,
2875.0,-22.60,3.77,16.83,-4.70,
2878.91,-26.38,6.52,17.78,-3.13,
2882.81,-21.34,19.04,17.28,-3.74,
2886.72,-19.23,13.83,9.46,-15.49,
2890.62,-25.80,12.51,12.50,-10.24,
2894.53,-23.02,13.14,14.25,-11.07,
2898.44,-22.27,3.41,12.53,-12.16,
2902.34,-21.73,13.08,11.18,-5.59,
2906.25,-13.02,6.10,6.20,-6.23,
2910.16,-7.02,10.67,4.63,1.68,
2914.06,-7.08,6.30,5.31,5.92,
2917.97,-4.53,1.44,3.67,7.03,
2921.88,-3.58,1.50,0.73,12.32,
2925.78,5.10,1.94,1.95,15.25,
2929.69,8.03,2.79,1.69,24.25,
2933.59,7.73,-3.90,-0.57,25.18,
2937.5,9.94,1.45,-5.52,22.12,
2941.41,11.79,2.79,-2.33,26.54,
2945.31,7.35,-2.72,0.70,25.82,
2949.22,9.02,3.49,6.34,26.66,
2953.12,4.25,4.92,-2.05,21.78,
2957.03,5.30,5.11,6.05,24.05,
2960.94,-3.77,6.50,4.61,17.88,
2964.84,-5.16,7.51,10.92,12.26,
2968.75,-10.14,5.01,5.59,9.21,
2972.66,-9.35,6.18,3.59,0.09,
2976.56,-15.32,4.65,4.38,-3.03,
2980.47,-25.44,8.79,10.14,-4.54,
2984.38,-17.33,5.12,5.81,-7.00,
2988.28,-20.80,3.31,11.85,-9.19,
2992.19,-22.15,5.25,21.42,-9.13,
2996.09,-20.76,4.93,5.76,-3.38,
3000.0,-28.99,9.60,9.76,-9.82,
3003.91,-17.29,11.20,14.52,-3.73,
3007.81,-16.12,5.66,12.12,2.20,
3011.72,-16.17,4.50,13.72,-0.41,
3015.62,-9.69,1.87,10.75,8.30,
3019.53,-7.28,-0.68,17.95,8.55,
3023.44,-0.94,1.43,10.17,17.98,
3027.34,1.44,4.86,7.89,19.38,
3031.25,4.65,2.48,9.71,20.66,
3035.16,3.06,1.16,15.73,21.59,
3039.06,6.04,7.39,9.22,13.44,
3042.97,7.21,6.74,10.38,17.06,
3046.88,4.85,12.37,8.98,16.43,
3050.78,4.67,9.70,12.88,14.80,
3054.69,2.17,10.70,6.32,14.55,
3058.59,-1.01,16.55,12.77,4.74,
3062.5,-4.46,10.25,12.68,2.58,
3066.41,-6.36,19.80,10.11,2.65,
3070.31,-6.73,13.66,14.24,0.38,
3074.22,-9.66,14.27,12.85,1.28,
3078.12,-9.82,17.11,12.41,2.24,
3082.03,-18.71,19.05,14.04,-3.09,
3085.94,-16.88,21.46,16.24,2.48,
3089.84,-15.11,16.16,16.71,4.07,
3093.75,-10.49,11.80,12.38,3.99,
3097.66,-5.31,18.31,18.15,2.98,
3101.56,-6.24,9.85,11.10,11.04,
3105.47,5.98,12.60,10.36,11.58,
3109.38,9.09,8.23,8.64,15.76,
3113.28,9.99,14.69,4.74,27.12,
3117.19,12.56,5.77,3.76,24.97,
3121.09,18.51,10.84,1.52,20.54,
3125.0,20.81,7.85,-2.19,26.87,
3128.91,26.09,4.42,-1.98,24.50,
3132.81,25.66,8.30,7.10,30.79,
3136.72,22.90,2.64,-2.95,30.42,
3140.62,28.23,6.14,-0.87,27.24,
3144.53,29.25,5.07,-3.57,15.80,
3148.44,20.19,4.98,-6.39,11.19,
3152.34,21.97,9.25,-8.61,12.39,
3156.25,20.78,10.63,-7.86,5.34,
3160.16,12.15,7.57,-11.01,0.43,
3164.06,12.43,7.00,-11.14,-2.97,
3167.97,8.45,3.82,-3.99,-5.12,
3171.88,3.62,9.86,-1.71,-13.96,
3175.78,1.35,11.24,-3.00,-10.00,
3179.69,-5.29,9.69,-2.86,-7.04,
3183.59,-4.27,6.31,-1.22,-6.20,
3187.5,-9.03,3.77,-4.48,-14.32,
3191.41,3.47,3.76,-2.95,-8.74,
3195.31,-2.37,1.19,9.82,-4.10,
3199.22,3.16,-0.38,2.01,-0.84,
3203.12,7.48,-4.87,4.16,4.73,
3207.03,8.50,-7.26,5.36,2.28,
3210.94,10.89,-4.51,6.15,11.64,
3214.84,16.61,0.11,1.80,9.39,
3218.75,20.29,-1.80,4.56,8.51,
3222.66,21.70,-3.88,7.99,12.12,
3226.56,19.79,-1.81,2.76,16.70,
3230.47,22.25,3.37,2.68,9.00,
3234.38,19.21,-1.89,5.15,10.90,
3238.28,17.29,1.35,3.00,3.91,
3242.19,15.43,8.60,-1.67,1.45,
3246.09,21.28,-0.97,-4.28,4.86,
3250.0,9.10,8.21,4.38,-6.31,
3253.91,4.77,8.97,-3.37,-9.23,
3257.81,2.24,4.44,-2.77,-8.25,
3261.72,-1.63,8.06,-3.38,-14.86,
3265.62,-5.49,8.46,-1.29,-15.10,
3269.53,-7.77,7.73,-7.35,-18.63,
3273.44,-12.30,10.02,-8.22,-15.27,
3277.34,-12.21,2.40,-8.04,-10.18,
3281.25,-12.30,3.08,-7.92,-13.30,
3285.16,-9.67,2.48,-6.80,-10.93,
3289.06,-7.64,3.22,-5.67,-4.13,
3292.97,-6.53,4.55,-4.67,2.22,
3296.88,-3.30,0.48,-7.88,1.68,
3300.78,3.07,-2.47,-1.18,5.41,
3304.69,9.31,-5.32,-6.40,7.11,
3308.59,11.56,-0.77,-5.83,9.84,
3312.5,12.21,-0.76,-3.29,12.77,
3316.41,14.25,-2.61,-5.77,14.46,
3320.31,16.89,2.55,-8.59,17.91,
3324.22,24.26,0.59,-1.80,13.63,
3328.12,20.02,-3.32,-10.32,12.05,
3332.03,16.43,-5.51,-4.73,9.26,
3335.94,21.02,1.97,-8.12,1.65,
3339.84,13.34,3.34,-10.28,-6.41,
3343.75,15.34,-1.85,-13.16,-7.96,
3347.66,13.07,-1.28,-17.42,-9.60,
3351.56,8.94,-5.46,-13.78,-13.26,
3355.47,2.88,-1.48,-18.21,-24.91,
3359.38,0.78,-3.49,-15.34,-23.32,
3363.28,-5.44,-4.20,-17.30,-22.03,
3367.19,-9.32,-10.72,-16.90,-29.53,
3371.09,-18.39,-11.52,-18.58,-27.95,
3375.0,-17.35,-10.82,-13.26,-22.00,
3378.91,-13.80,-9.27,-17.57,-25.16,
3382.81,-11.96,-17.05,-14.33,-19.89,
3386.72,-14.40,-16.72,-10.75,-21.36,
3390.62,-11.04,-17.46,-15.01,-12.97,
3394.53,-8.79,-17.65,-10.51,-5.33,
3398.44,-8.99,-16.70,-14.83,-4.92,
3402.34,-9.99,-16.11,-9.36,-2.99,
3406.25,-5.95,-17.55,-3.82,0.52,
3410.16,0.96,-16.88,-1.29,2.20,
3414.06,1.30,-17.50,-5.35,0.31,
3417.97,1.24,-20.87,-2.75,0.69,
3421.88,6.06,-9.59,-5.00,-2.98,
3425.78,1.09,-10.48,-0.75,-5.02,
3429.69,4.56,-11.72,-3.12,-1.57,
3433.59,5.01,-8.65,-4.61,-10.09,
3437.5,1.63,-6.27,2.80,-9.05,
3441.41,-3.68,-7.14,-2.24,-17.16,
3445.31,-4.54,-6.26,-6.60,-17.36,
3449.22,-11.66,-5.98,-8.48,-17.50,
3453.12,-13.42,-7.91,-3.34,-25.76,
3457.03,-23.55,-11.03,-2.78,-20.47,
3460.94,-23.92,-5.42,-1.25,-24.99,
3464.84,-29.43,-5.56,-6.26,-22.24,
3468.75,-32.22,-9.08,-7.19,-16.90,
3472.66,-34.08,-11.33,-13.42,-16.00,
3476.56,-22.56,-9.36,-11.35,-14.56,
3480.47,-20.51,-11.03,-13.93,-7.53,
3484.38,-30.34,-7.34,-13.06,-6.21,
3488.28,-25.39,-15.74,-15.09,-6.29,
3492.19,-21.48,-11.56,-15.33,2.62,
3496.09,-18.66,-6.11,-9.13,7.09,
3500.0,-8.43,-10.19,-14.01,7.51,
3503.91,-5.46,-6.64,-16.43,11.92,
3507.81,-4.99,-10.23,-11.92,6.05,
3511.72,-1.07,-0.78,-9.69,7.69,
3515.62,4.93,-5.08,-11.04,7.60,
3519.53,5.51,-6.07,-9.65,8.91,
3523.44,9.30,-7.27,-9.60,8.10,
3527.34,12.64,-1.58,-2.50,2.97,
3531.25,6.30,-8.28,-6.73,-8.71,
3535.16,5.69,3.02,-5.16,-11.43,
3539.06,-0.40,-8.40,-11.13,-8.13,
3542.97,2.93,-3.57,-5.53,-16.58,
3546.88,-2.79,0.01,-3.73,-25.05,
3550.78,-2.83,-11.25,-6.10,-25.03,
3554.69,-9.06,-10.76,-9.12,-24.77,
3558.59,-9.60,-9.21,-3.20,-17.27,
3562.5,-13.66,-8.65,-8.38,-20.30,
3566.41,-19.46,-10.37,-3.05,-14.92,
3570.31,-16.93,-10.86,-6.47,-16.51,
3574.22,-15.29,-12.65,0.37,-9.08,
3578.12,-19.16,-18.73,-10.23,-7.16,
3582.03,-17.37,-12.30,-7.14,-1.52,
3585.94,-11.09,-15.54,-9.13,0.21,
3589.84,-9.72,-16.63,-5.20,5.68,
3593.75,-6.33,-13.22,-3.92,11.25,
3597.66,-11.20,-16.60,-0.25,0.66,
3601.56,6.80,-13.11,-9.05,11.40,
3605.47,2.52,-14.55,2.76,8.13,
3609.38,5.62,-4.09,2.59,7.45,
3613.28,8.26,-8.98,6.10,3.86,
3617.19,8.12,-2.85,2.14,4.82,
3621.09,13.92,-6.27,-2.65,1.13,
3625.0,15.54,2.78,5.86,-1.28,
3628.91,14.47,-0.84,8.59,-10.06,
3632.81,6.86,-1.17,4.49,-7.87,
3636.72,10.29,-2.07,5.85,-14.56,
3640.62,1.70,-2.82,8.41,-9.64,
3644.53,-1.11,-0.60,12.65,-14.56,
3648.44,-7.62,-2.34,11.72,-7.50,
3652.34,-11.40,-4.07,16.31,-8.61,
3656.25,-16.48,-3.10,7.79,-10.17,
3660.16,-18.72,-4.96,17.03,-0.57,
3664.06,-12.17,0.40,9.55,1.42,
3667.97,-16.68,-6.18,5.33,7.18,
3671.88,-20.30,-2.24,9.47,11.20,
3675.78,-14.19,-6.05,7.72,12.93,
3679.69,-15.94,-7.71,5.98,12.75,
3683.59,-15.00,4.49,-0.44,19.63,
3687.5,-5.87,0.70,-1.28,21.46,
3691.41,0.60,1.12,0.46,18.83,
3695.31,0.95,6.13,-2.73,23.13,
3699.22,8.28,7.01,-0.37,23.86,
3703.12,13.64,11.73,1.57,19.37,
3707.03,23.93,4.37,-5.89,22.51,
3710.94,17.95,10.73,1.74,21.13,
3714.84,17.82,10.87,1.16,17.64,
3718.75,25.23,13.76,0.85,8.73,
3722.66,18.30,12.84,-1.78,9.73,
3726.56,19.10,10.29,-0.64,4.82,
3730.47,22.58,10.97,2.76,3.14,
3734.38,12.92,12.24,6.48,-1.01,
3738.28,17.96,6.45,3.04,-4.75,
3742.19,10.78,6.73,1.57,-11.43,
3746.09,10.48,4.45,5.18,-8.49,
3750.0,7.35,3.29,9.25,-6.73,
3753.91,3.05,2.45,7.20,-6.63,
3757.81,-3.82,-2.47,7.26,-3.66,
3761.72,3.67,-0.21,12.02,-2.03,
3765.62,0.53,3.99,11.85,1.94,
3769.53,-3.58,-0.86,9.61,10.28,
3773.44,-2.02,-6.80,13.99,7.84,
3777.34,4.73,1.48,10.70,15.54,
3781.25,9.66,-2.47,17.05,16.50,
3785.16,5.76,0.08,12.58,22.69,
3789.06,14.62,2.01,13.45,20.74,
3792.97,17.82,0.63,7.77,20.79,
3796.88,26.83,5.97,8.46,23.38,
3800.78,16.12,4.15,11.36,15.38,
3804.69,22.28,5.65,8.23,12.54,
3808.59,22.40,2.57,6.77,11.57,
3812.5,29.37,6.12,5.99,13.40,
3816.41,22.65,8.99,6.93,3.10,
3820.31,25.97,10.39,13.83,4.16,
3824.22,23.06,10.90,7.36,3.15,
3828.12,21.14,10.26,12.81,-6.90,
3832.03,12.39,8.74,12.12,-1.88,
3835.94,11.87,7.21,16.20,-2.77,
3839.84,9.28,10.69,16.99,-2.11,
3843.75,4.68,7.27,17.15,5.49,
3847.66,-4.95,3.68,19.36,1.76,
3851.56,-6.97,3.49,17.97,6.14,
3855.47,-2.87,5.18,18.26,13.18,
3859.38,-15.57,2.47,16.55,10.50,
3863.28,-13.98,4.13,15.24,13.49,
3867.19,-17.01,8.08,15.76,22.85,
3871.09,-11.07,9.30,17.07,20.34,
3875.0,-12.67,10.22,16.78,27.45,
3878.91,-9.54,10.38,13.65,23.53,
3882.81,-3.45,14.92,14.38,30.42,
3886.72,0.34,8.64,10.77,22.50,
3890.62,-1.97,15.50,12.01,26.04,
3894.53,5.08,22.69,7.47,19.47,
3898.44,3.43,15.90,5.34,14.12,
3902.34,11.67,20.29,1.13,14.84,
3906.25,13.97,17.92,3.88,7.76,
3910.16,15.44,24.22,1.19,1.34,
3914.06,14.32,19.70,-3.62,-3.22,
3917.97,12.36,21.26,0.42,-0.05,
3921.88,11.94,23.37,-5.28,-5.89,
3925.78,9.14,20.47,-3.05,-13.05,
3929.69,7.72,10.92,-5.85,-8.96,
3933.59,3.60,15.01,-5.63,-8.60,
3937.5,-0.44,4.69,-5.16,-16.40,
3941.41,-7.91,10.27,-0.58,-9.20,
3945.31,-9.12,8.67,-5.06,-10.35,
3949.22,-10.35,3.92,0.85,-6.25,
3953.12,-10.81,5.39,4.74,-4.48,
3957.03,-11.86,4.49,4.00,0.68,
3960.94,-21.02,8.93,1.91,1.11,
3964.84,-15.34,-0.90,11.22,4.54,
3968.75,-15.38,0.69,8.49,12.92,
3972.66,-10.64,1.26,12.18,11.18,
3976.56,-11.09,3.94,9.42,11.78,
3980.47,-5.87,4.91,15.18,19.38,
3984.38,-2.02,2.77,6.74,12.20,
3988.28,-4.02,5.60,11.10,8.33,
3992.19,2.86,12.13,12.05,3.68,
3996.09,9.24,6.33,7.60,0.63,
4000.0,12.65,5.21,8.19,1.35,2
4003.91,11.43,7.34,5.47,1.65,
4007.81,13.49,-1.04,10.28,-12.65,
4011.72,6.47,3.17,8.95,-12.64,
4015.62,9.78,-0.77,7.16,-15.01,
4019.53,2.92,4.04,4.17,-15.53,
4023.44,7.48,3.57,6.01,-16.60,
4027.34,0.09,3.17,3.88,-17.10,
4031.25,1.13,-0.22,-0.56,-13.47,
4035.16,-11.60,-6.47,4.78,-9.40,
4039.06,-16.30,-1.84,-0.16,-11.10,
4042.97,-13.44,-4.14,0.49,-8.02,
4046.88,-19.94,1.94,-1.35,-3.77,
4050.78,-23.83,-0.22,-4.19,0.40,
4054.69,-21.38,2.47,-4.88,1.31,
4058.59,-31.72,-4.07,-3.63,8.25,
4062.5,-32.23,0.99,-11.31,11.42,
4066.41,-22.46,-1.66,-11.04,13.13,
4070.31,-23.46,2.32,-1.54,17.13,
4074.22,-17.99,6.91,-5.83,13.32,
4078.12,-22.92,6.54,-2.84,9.57,
4082.03,-11.78,7.19,-6.69,9.89,
4085.94,-10.59,9.05,-4.88,4.06,
4089.84,-10.74,8.05,-5.14,0.62,
4093.75,-9.65,10.60,-6.06,-0.60,
4097.66,-1.55,14.25,-8.66,-3.69,
4101.56,-0.81,11.05,-2.92,-9.63,
4105.47,1.17,9.63,-7.03,-14.55,
4109.38,-1.10,8.22,-3.41,-14.34,
4113.28,4.49,9.86,-7.78,-20.01,
4117.19,6.01,3.59,-15.46,-25.55,
4121.09,-1.11,-0.53,-15.58,-27.35,
4125.0,-7.76,2.87,-8.08,-23.63,
4128.91,-11.05,-0.97,-16.82,-23.61,
4132.81,-12.28,-0.19,-12.99,-23.32,
4136.72,-11.19,-4.26,-10.53,-25.26,
4140.62,-14.06,-1.74,-17.16,-17.77,
4144.53,-16.86,-8.94,-17.73,-15.82,
4148.44,-19.33,-12.85,-17.68,-7.56,
4152.34,-20.52,-7.92,-12.64,-1.27,
4156.25,-21.28,-2.93,-19.77,-5.80,
4160.16,-16.21,-5.45,-13.09,1.38,
4164.06,-16.28,-3.50,-13.63,-1.87,
4167.97,-18.34,-3.30,-13.32,3.35,
4171.88,-6.07,-5.58,-8.91,0.31,
4175.78,-5.61,-9.01,-3.24,-3.46,
4179.69,0.95,-3.68,-5.13,-3.31,
4183.59,6.48,-7.33,-1.54,-6.26,
4187.5,8.01,-6.40,-3.30,-8.18,
4191.41,8.08,-11.05,-2.84,-11.08,
4195.31,13.74,-2.77,2.78,-12.11,
4199.22,21.21,-7.33,1.22,-21.12,
4203.12,10.08,-8.31,-2.47,-21.83,
4207.03,10.95,-8.34,-0.74,-24.36,
4210.94,14.20,-14.99,-2.97,-25.94,
4214.84,11.75,-14.63,-2.03,-19.91,
4218.75,8.23,-16.61,-4.54,-19.94,
4222.66,10.16,-13.75,2.58,-18.50,
4226.56,8.28,-19.24,-4.57,-15.19,
4230.47,9.26,-20.74,-5.96,-11.35,
4234.38,-3.24,-16.19,-6.96,-6.83,
4238.28,-6.71,-14.56,-11.23,-3.95,
4242.19,-5.07,-11.69,-12.08,3.24,
4246.09,-10.27,-11.54,-10.78,10.26,
4250.0,-6.98,-16.09,-13.22,6.07,
4253.91,-12.47,-16.92,-18.19,13.69,
4257.81,-10.90,-7.41,-16.59,8.80,
4261.72,-11.26,-3.71,-14.12,12.75,
4265.62,-5.05,-5.01,-14.02,12.66,
4269.53,-6.34,0.10,-14.86,7.36,
4273.44,-0.37,-0.53,-15.72,8.94,
4277.34,4.49,-12.49,-19.05,4.50,
4281.25,2.24,3.18,-12.30,-0.98,
4285.16,8.85,-2.83,-14.49,-4.52,
4289.06,14.95,-6.53,-11.06,-10.40,
4292.97,14.91,-4.68,-10.54,-16.13,
4296.88,16.59,-4.02,-15.18,-14.98,
4300.78,9.38,-5.39,-13.93,-18.01,
4304.69,17.07,-2.98,-9.45,-21.06,
4308.59,20.83,-8.02,-8.44,-16.76,
4312.5,18.01,-1.83,-6.63,-22.19,
4316.41,17.09,-6.03,-8.64,-17.55,
4320.31,10.92,-8.12,-7.70,-17.21,
4324.22,13.18,-8.81,-11.91,-13.12,
4328.12,4.03,-9.53,-7.44,-9.03,
4332.03,-3.24,-15.16,-4.29,-6.31,
4335.94,3.12,-8.58,-10.47,-7.37,
4339.84,-1.56,-8.09,-4.01,0.80,
4343.75,-4.37,-14.35,-11.44,5.39,
4347.66,-6.30,-10.72,-5.65,12.04,
4351.56,-8.19,-6.94,-11.33,13.45,
4355.47,-3.08,-4.63,-12.84,13.85,
4359.38,-2.62,-0.15,-6.55,7.84,
4363.28,2.72,-4.53,-10.06,11.08,
4367.19,4.56,-4.95,-10.63,4.85,
4371.09,8.79,-4.58,-4.62,0.64,
4375.0,13.04,-0.73,-8.77,-1.22,
4378.91,14.02,-3.85,-9.23,-1.01,
4382.81,18.62,-8.93,-4.87,-5.11,
4386.72,22.85,-8.58,-1.55,-7.94,
4390.62,27.98,-11.23,-2.05,-8.51,
4394.53,23.16,-13.70,-1.01,-13.01,
4398.44,28.38,-14.85,-0.09,-7.32,
4402.34,35.06,-10.97,5.07,-6.46,
4406.25,28.47,-15.82,5.90,-9.33,
4410.16,18.67,-18.36,4.25,-4.43,
4414.06,20.78,-21.68,7.58,-1.77,
4417.97,20.81,-15.22,15.48,-1.34,
4421.88,18.28,-13.17,6.73,5.19,
4425.78,7.71,-15.50,7.33,8.71,
4429.69,5.59,-17.04,11.74,17.05,
4433.59,-0.55,-9.80,4.62,13.06,
4437.5,-1.10,-8.95,4.70,23.38,
4441.41,0.93,0.43,3.22,25.35,
4445.31,-10.74,1.96,3.27,28.54,
4449.22,-7.97,-7.65,2.59,22.42,
4453.12,-10.45,-3.34,2.45,19.09,
4457.03,-8.11,6.87,-2.50,25.24,
4460.94,-7.76,-7.78,-3.98,19.63,
4464.84,-1.87,1.74,-2.88,20.33,
4468.75,-1.47,2.17,-1.25,10.25,
4472.66,0.34,6.89,-10.48,7.77,
4476.56,4.27,3.95,-5.61,7.16,
4480.47,3.80,6.04,-4.27,7.27,
4484.38,11.24,4.37,-0.57,-4.15,
4488.28,9.47,-3.07,-1.87,0.37,
4492.19,9.79,-2.08,-0.49,-8.79,
4496.09,9.78,5.60,-4.08,-8.13,
4500.0,15.30,2.26,-5.12,-3.01,
4503.91,3.54,3.18,0.78,-8.06,
4507.81,3.94,-3.29,5.86,-4.15,
4511.72,1.23,1.93,5.71,-0.84,
4515.62,1.57,3.50,3.70,2.44,
4519.53,-4.79,-1.64,1.10,6.47,
4523.44,-10.53,2.20,5.45,11.72,
4527.34,-11.34,4.30,6.48,11.91,
4531.25,-16.56,5.37,3.15,15.35,
4535.16,-17.18,7.06,5.87,16.59,
4539.06,-21.38,5.48,6.03,16.25,
4542.97,-21.25,9.34,10.50,17.64,
4546.88,-20.18,8.45,8.75,17.29,
4550.78,-21.95,11.77,9.69,18.59,
4554.69,-21.58,18.24,3.30,10.93,
4558.59,-17.48,10.35,15.17,15.95,
4562.5,-11.69,12.03,9.82,5.45,
4566.41,-8.06,9.09,15.70,5.81,
4570.31,-1.06,3.23,13.47,5.04,
4574.22,1.65,8.05,10.66,1.86,
4578.12,0.87,3.92,6.17,-1.36,
4582.03,1.22,3.33,11.38,0.69,
4585.94,12.51,1.70,8.11,-4.72,
4589.84,11.42,1.97,9.88,-8.09,
4593.75,15.10,0.04,12.30,-3.02,
4597.66,9.91,3.52,6.73,-6.42,
4601.56,15.44,-2.12,9.41,-0.46,
4605.47,1.29,2.61,13.66,6.15,
4609.38,6.88,-5.47,13.84,11.67,
4613.28,-5.71,-0.27,15.64,12.72,
4617.19,-5.62,-1.53,12.93,17.47,
4621.09,-8.58,2.59,13.59,18.46,
4625.0,-7.40,1.37,17.44,19.21,
4628.91,-9.94,-0.81,16.67,24.73,
4632.81,-19.85,4.47,20.40,31.97,
4636.72,-20.61,5.91,11.14,32.19,
4640.62,-24.60,5.81,16.90,28.43,
4644.53,-17.43,16.41,18.38,22.91,
4648.44,-23.64,10.42,17.79,24.35,
4652.34,-18.62,6.04,12.68,22.18,
4656.25,-20.09,11.92,21.34,13.29,
4660.16,-11.61,17.80,14.01,7.55,
4664.06,-19.69,9.55,12.10,5.88,
4667.97,-6.08,8.42,9.11,-6.62,
4671.88,-9.01,12.77,0.27,-2.16,
4675.78,2.13,6.24,4.38,-2.93,
4679.69,0.68,11.10,3.91,-14.83,
4683.59,0.68,13.21,2.43,-10.20,
4687.5,1.14,6.33,-0.34,-16.15,
4691.41,-1.58,8.69,-0.70,-15.41,
4695.31,3.99,6.02,0.59,-9.75,
4699.22,5.44,10.19,1.31,-8.86,
4703.12,-6.00,12.35,3.92,-6.68,
4707.03,1.66,13.43,5.14,-3.69,
4710.94,-10.56,11.90,-2.48,0.75,
4714.84,-12.14,13.44,0.25,0.42,
4718.75,-16.50,18.04,1.38,2.13,
4722.66,-24.21,14.51,3.64,4.85,
4726.56,-26.30,18.29,13.75,12.48,
4730.47,-26.02,17.17,5.22,6.65,
4734.38,-28.49,17.73,9.37,10.89,
4738.28,-26.63,19.98,9.92,5.94,
4742.19,-27.53,20.29,13.01,8.01,
4746.09,-18.63,22.25,6.08,5.45,
4750.0,-15.58,20.35,15.81,-1.05,
4753.91,-14.02,18.00,10.35,-2.31,
4757.81,-15.95,11.54,13.48,-3.35,
4761.72,-7.41,16.85,17.04,-12.86,
4765.62,-2.96,8.75,14.86,-10.71,
4769.53,-0.34,10.99,7.99,-11.61,
4773.44,-0.87,5.69,9.16,-14.57,
4777.34,11.10,-2.21,6.39,-18.87,
4781.25,17.09,7.64,11.47,-12.36,
4785.16,13.61,2.67,8.70,-18.42,
4789.06,16.20,-0.62,8.54,-11.36,
4792.97,16.01,-1.73,0.33,-8.28,
4796.88,16.78,-0.43,6.57,-7.70,
4800.78,12.76,-1.98,2.89,-1.69,
4804.69,11.65,-1.01,-0.95,0.33,
4808.59,5.48,-0.93,3.93,5.72,
4812.5,7.16,1.31,4.45,4.83,
4816.41,5.74,0.85,2.20,10.34,
4820.31,-0.31,4.96,-0.80,8.69,
4824.22,-2.88,1.20,1.50,11.01,
4828.12,-7.43,6.83,2.33,11.70,
4832.03,-6.02,9.04,0.45,11.39,
4835.94,-9.24,8.26,1.02,9.53,
4839.84,-6.47,4.32,-1.96,3.88,
4843.75,-5.97,2.40,5.56,3.45,
4847.66,-8.83,-0.68,-2.67,-3.68,
4851.56,7.88,1.42,0.90,-4.82,
4855.47,1.45,7.39,4.46,-13.45,
4859.38,9.01,5.84,-2.92,-18.02,
4863.28,8.03,2.12,-2.92,-23.99,
4867.19,13.51,1.09,4.11,-23.05,
4871.09,20.72,4.29,2.41,-36.00,
4875.0,16.63,1.23,-6.10,-27.66,
4878.91,22.77,-0.26,-4.46,-20.51,
4882.81,20.45,3.00,-4.95,-24.05,
4886.72,20.67,-2.47,-6.92,-26.24,
4890.62,22.67,1.08,-9.04,-16.87,
4894.53,15.91,-4.22,-7.87,-20.04,
4898.44,12.25,3.32,-7.56,-14.70,
4902.34,10.52,8.62,-15.87,-6.32,
4906.25,10.79,3.23,-13.01,-8.25,
4910.16,3.59,6.19,-15.45,-7.95,
4914.06,3.84,5.93,-11.40,-1.52,
4917.97,6.50,10.26,-17.99,-4.06,
4921.88,-7.78,7.83,-18.77,-3.13,
4925.78,-7.51,4.57,-13.67,0.23,
4929.69,-12.19,10.82,-12.39,1.24,
4933.59,-7.87,7.70,-12.13,-2.94,
4937.5,-8.41,2.18,-7.68,-8.86,
4941.41,-4.84,6.36,-11.05,-10.34,
4945.31,-1.71,1.84,-12.75,-14.36,
4949.22,0.74,6.89,-3.00,-23.04,
4953.12,-0.15,-1.39,-5.13,-22.63,
4957.03,3.73,-5.63,3.79,-21.20,
4960.94,7.15,-7.85,0.98,-20.85,
4964.84,16.26,-4.98,-2.21,-25.08,
4968.75,14.22,-8.88,2.10,-23.85,
4972.66,20.56,-6.75,-0.74,-17.57,
4976.56,23.43,-8.86,0.82,-17.40,
4980.47,21.19,-13.16,1.61,-11.87,
4984.38,23.73,-9.42,-0.17,-12.96,
4988.28,24.14,-9.72,-2.17,-8.11,
4992.19,21.36,-10.00,-5.42,-1.13,
4996.09,21.52,-9.41,-3.80,3.08,
5000.0,14.62,-11.65,-1.01,2.01,
5003.91,12.67,-10.41,-2.88,4.75,
5007.81,9.21,-11.27,-1.34,10.45,
5011.72,5.73,-7.14,-5.21,6.26,
5015.62,0.52,-6.48,-11.13,8.29,
5019.53,-1.50,-6.55,-9.59,17.55,
5023.44,-6.86,-11.62,-15.38,12.62,
5027.34,-6.47,-12.15,-10.31,4.64,
5031.25,-1.45,-7.62,-15.52,6.01,
5035.16,-2.49,-4.64,-15.32,-1.63,
5039.06,0.19,-6.84,-13.62,-7.42,
5042.97,-5.87,-15.57,-17.44,-9.62,
5046.88,-4.16,-10.22,-22.07,-15.20,
5050.78,0.01,-11.57,-12.45,-19.70,
5054.69,5.65,-17.36,-12.68,-22.09,
5058.59,8.31,-10.41,-6.85,-16.67,
5062.5,7.62,-16.65,-15.14,-22.23,
5066.41,7.85,-16.92,-8.33,-13.12,
5070.31,16.17,-13.98,-9.04,-23.00,
5074.22,13.34,-11.37,-11.20,-16.91,
5078.12,18.56,-18.37,-6.55,-15.08,
5082.03,16.86,-11.24,-7.55,-6.00,
5085.94,10.36,-7.12,-8.05,-0.79,
5089.84,9.14,-4.34,-7.37,-2.48,
5093.75,10.28,-7.27,-6.96,2.19,
5097.66,3.53,-4.27,-6.95,5.39,
5101.56,0.47,-1.17,-12.96,10.89,
5105.47,-1.51,-0.19,-9.65,7.21,
5109.38,-6.65,-5.41,-10.96,15.14,
5113.28,-16.87,1.34,-14.10,12.26,
5117.19,-22.79,-1.38,-14.32,9.50,
5121.09,-26.66,4.10,-11.86,5.88,
5125.0,-19.22,-1.16,-12.26,5.75,
5128.91,-20.07,-1.61,-16.31,2.31,
5132.81,-23.70,-3.43,-14.91,-3.38,
5136.72,-29.17,-3.36,-15.10,-5.78,
5140.62,-20.74,-3.12,-15.09,-7.44,
5144.53,-20.85,-6.39,-14.25,-10.76,
5148.44,-15.20,-11.17,-13.13,-9.59,
5152.34,-15.59,-11.46,-4.90,-10.40,
5156.25,-9.48,-13.08,-11.85,-8.67,
5160.16,-2.33,-8.62,2.87,-8.45,
5164.06,-1.40,-16.13,1.54,-2.03,
5167.97,3.74,-11.12,-2.72,-9.27,
5171.88,6.76,-10.69,0.11,-0.17,
5175.78,6.94,-11.31,1.49,3.33,
5179.69,1.41,-11.78,1.98,8.00,
5183.59,9.50,-11.99,3.30,16.23,
5187.5,7.37,-12.12,3.88,15.56,
5191.41,4.00,-7.67,5.58,23.53,
5195.31,3.59,-8.54,3.70,23.38,
5199.22,-1.89,-5.88,6.94,24.62,
5203.12,-6.67,-5.52,5.54,26.54,
5207.03,-10.18,-6.06,3.21,25.26,
5210.94,-19.78,-5.69,3.48,29.07,
5214.84,-22.55,-7.46,4.53,19.61,
5218.75,-17.66,-7.84,3.10,17.55,
5222.66,-29.76,-9.35,0.43,12.06,
5226.56,-24.45,-9.03,-0.08,14.72,
5230.47,-22.23,-8.08,-2.63,4.22,
5234.38,-16.77,-9.97,-5.60,6.41,
5238.28,-15.89,-17.11,-8.65,1.42,
5242.19,-14.63,-13.72,-5.95,-4.90,
5246.09,-6.59,-15.70,-10.41,-13.34,
5250.0,-6.20,-14.95,-3.91,-9.42,
5253.91,0.93,-14.54,-2.73,-10.07,
5257.81,0.14,-10.75,-4.29,-3.47,
5261.72,0.38,-8.25,-7.57,-8.84,
5265.62,5.11,-10.95,-9.34,2.75,
5269.53,10.00,-4.60,-8.75,-2.85,
5273.44,10.43,-5.83,-2.46,7.76,
5277.34,9.26,-1.35,-3.61,10.04,
5281.25,13.49,2.30,-5.66,8.12,
5285.16,9.50,-0.79,-1.51,14.38,
5289.06,3.51,1.18,-3.28,12.81,
5292.97,-8.14,0.88,5.32,16.86,
5296.88,-4.93,8.70,6.86,18.59,
5300.78,-6.76,5.12,-1.77,22.78,
5304.69,-12.51,4.12,5.64,19.65,
5308.59,-15.95,3.98,5.28,17.50,
5312.5,-17.25,6.00,3.14,15.14,
5316.41,-18.11,4.32,8.30,13.84,
5320.31,-20.07,9.37,7.84,11.54,
5324.22,-19.63,1.93,7.97,4.69,
5328.12,-25.16,2.44,0.93,3.07,
5332.03,-19.01,5.93,10.82,-3.40,
5335.94,-19.58,6.27,9.78,-5.60,
5339.84,-22.98,0.30,3.10,-4.14,
5343.75,-9.21,-3.77,6.92,-7.95,
5347.66,-0.54,0.59,7.39,-6.44,
5351.56,-10.15,-2.29,3.07,2.13,
5355.47,-3.07,3.49,7.33,1.02,
5359.38,-3.32,0.03,9.26,6.36,
5363.28,7.80,-1.77,7.18,9.34,
5367.19,8.38,4.81,5.30,6.56,
5371.09,9.57,2.47,11.87,18.67,
5375.0,12.11,3.88,10.80,24.57,
5378.91,9.23,4.45,13.60,24.51,
5382.81,9.84,10.50,12.89,22.41,
5386.72,10.28,7.41,17.30,28.27,
5390.62,8.65,7.94,14.98,22.42,
5394.53,0.20,8.49,15.61,24.42,
5398.44,-4.21,3.52,16.88,23.98,
5402.34,-2.84,3.18,16.74,20.16,
5406.25,-3.78,3.39,16.85,17.68,
5410.16,-7.06,8.66,14.83,12.97,
5414.06,-11.04,-0.64,19.29,9.96,
5417.97,-6.13,-0.98,17.24,0.05,
5421.88,-3.08,-8.06,14.39,-3.90,
5425.78,-1.02,-1.80,18.36,-1.24,
5429.69,-1.31,-6.87,11.25,-10.45,
5433.59,1.50,-1.24,8.19,-9.12,
5437.5,0.83,-3.47,11.46,-13.39,
5441.41,12.56,1.39,5.14,-16.87,
5445.31,15.45,-0.91,9.36,-12.89,
5449.22,19.79,2.23,8.24,-13.54,
5453.12,21.71,-3.42,3.65,-11.18,
5457.03,20.83,0.35,-3.01,-2.73,
5460.94,25.07,4.55,3.35,-0.06,
5464.84,31.39,5.79,1.50,-2.69,
5468.75,30.28,9.13,3.04,5.64,
5472.66,30.11,12.53,0.25,2.17,
5476.56,27.42,17.62,-1.33,5.99,
5480.47,26.03,18.96,-2.84,2.12,
5484.38,19.28,15.27,0.45,9.06,
5488.28,15.93,13.70,-0.73,10.45,
5492.19,15.08,11.19,7.59,9.32,
5496.09,10.77,15.04,4.89,2.43,
5500.0,9.68,19.76,4.81,-1.04,
5503.91,0.16,16.66,5.81,-2.83,
5507.81,-1.76,11.46,12.47,-1.21,
5511.72,-2.85,11.06,10.49,-4.33,
5515.62,-12.86,12.89,15.39,-5.58,
5519.53,-10.23,12.26,15.43,-10.27,
5523.44,-12.74,4.71,13.69,-14.56,
5527.34,-6.51,9.27,17.74,-12.95,
5531.25,-6.00,10.48,10.87,-12.54,
5535.16,-5.83,6.82,11.83,-20.26,
5539.06,5.31,17.29,15.18,-16.54,
5542.97,7.01,8.12,18.07,-13.19,
5546.88,9.53,9.47,12.88,-14.78,
5550.78,11.55,15.05,7.20,-9.29,
5554.69,12.88,12.31,11.59,-2.49,
5558.59,17.38,13.97,5.84,2.49,
5562.5,21.61,15.55,4.54,5.87,
5566.41,20.03,12.30,9.07,12.09,
5570.31,23.17,15.87,9.40,10.11,
5574.22,15.92,19.54,9.89,13.88,
5578.12,13.58,19.32,9.37,8.54,
5582.03,15.76,14.60,6.48,5.67,
5585.94,4.92,15.89,2.90,12.40,
5589.84,1.84,7.02,10.66,9.95,
5593.75,1.86,10.40,2.68,4.74,
5597.66,2.35,6.60,6.28,-5.58,
5601.56,1.17,8.90,4.87,-6.05,
5605.47,-2.49,2.45,6.28,-10.63,
5609.38,-11.23,5.27,4.18,-12.77,
5613.28,-10.39,0.17,5.15,-20.18,
5617.19,-7.13,-0.98,8.44,-19.36,
5621.09,-4.71,-3.13,7.93,-24.66,
5625.0,-6.64,-4.33,4.48,-23.81,
5628.91,-5.04,-4.50,8.24,-25.14,
5632.81,-4.52,-1.71,8.68,-22.40,
5636.72,1.05,-4.71,3.60,-20.17,
5640.62,8.58,-7.30,6.45,-28.53,
5644.53,15.75,3.31,1.68,-18.58,
5648.44,15.21,0.64,3.05,-15.89,
5652.34,15.21,8.10,-5.81,-11.80,
5656.25,13.78,4.33,-3.28,-0.82,
5660.16,17.52,5.70,-4.55,-2.65,
5664.06,17.66,5.16,1.37,-0.39,
5667.97,19.11,15.11,-7.65,-3.32,
5671.88,14.04,11.92,-9.02,3.69,
5675.78,11.75,2.97,-10.83,1.06,
5679.69,13.66,12.11,-8.38,1.43,
5683.59,-1.98,8.48,-10.18,-3.22,
5687.5,-0.55,9.59,-7.42,1.23,
5691.41,-3.76,3.63,-5.42,-8.51,
5695.31,-9.24,0.84,-9.75,-8.91,
5699.22,-9.29,4.63,-9.01,-12.30,
5703.12,-13.85,6.52,-7.43,-16.42,
5707.03,-19.83,4.57,-10.80,-20.00,
5710.94,-22.32,7.94,-10.85,-19.48,
5714.84,-19.15,3.81,-6.75,-22.30,
5718.75,-21.82,-7.06,-7.51,-18.60,
5722.66,-22.81,1.69,4.16,-24.74,
5726.56,-20.20,0.98,-8.29,-22.61,
5730.47,-20.63,4.04,-1.66,-23.67,
5734.38,-11.12,6.15,-0.77,-10.95,
5738.28,-8.74,1.40,2.21,-9.21,
5742.19,-9.95,1.96,3.40,1.50,
5746.09,-4.71,6.46,-0.46,-1.81,
5750.0,-2.78,5.31,0.98,2.99,
5753.91,-2.06,10.52,9.03,4.55,
5757.81,-0.39,8.12,4.26,7.54,
5761.72,-0.79,8.24,-3.07,18.58,
5765.62,1.19,4.83,0.48,9.81,
5769.53,4.23,4.38,-1.52,18.30,
5773.44,-0.31,2.57,-0.23,10.97,
5777.34,-7.32,0.71,-2.09,13.18,
5781.25,-3.57,-7.15,2.47,10.04,
5785.16,-12.93,-4.07,-11.62,6.96,
5789.06,-19.73,-3.03,-8.73,-5.53,
5792.97,-18.41,-5.67,-11.67,-2.26,
5796.88,-17.00,-7.65,-8.80,-11.13,
5800.78,-27.63,-12.10,-10.93,-12.61,
5804.69,-26.37,-4.85,-10.27,-18.68,
5808.59,-29.72,-18.61,-15.63,-16.31,
5812.5,-26.34,-16.15,-11.22,-17.75,
5816.41,-22.76,-14.37,-13.27,-23.68,
5820.31,-26.90,-16.63,-15.49,-21.47,
5824.22,-18.61,-15.17,-16.83,-17.62,
5828.12,-13.20,-14.48,-10.11,-13.81,
5832.03,-8.76,-13.17,-10.89,-9.47,
5835.94,-11.28,-7.77,-13.17,-5.86,
5839.84,-8.08,-11.18,-16.23,-4.33,
5843.75,3.40,-7.61,-10.61,-3.77,
5847.66,10.22,-11.97,-11.30,1.25,
5851.56,7.22,-11.46,-6.76,8.88,
5855.47,11.08,-7.25,-12.76,8.66,
5859.38,9.01,-6.41,-8.72,9.76,
5863.28,12.79,-5.04,-7.66,17.02,
5867.19,6.21,-10.89,-14.05,10.16,
5871.09,3.72,-9.39,-8.35,11.73,
5875.0,10.71,-6.01,-8.40,6.00,
5878.91,1.45,-6.79,-9.52,-0.70,
5882.81,-5.23,-13.23,-15.36,6.11,
5886.72,0.67,-10.09,-12.44,4.98,
5890.62,-6.94,-10.03,-12.97,-2.59,
5894.53,-7.39,-9.92,-14.35,-7.38,
5898.44,-13.22,-17.21,-13.59,-7.70,
5902.34,-14.86,-15.51,-13.75,-8.63,
5906.25,-16.80,-10.42,-17.61,-13.73,
5910.16,-15.46,-17.32,-13.05,-2.36,
5914.06,-14.82,-7.07,-9.42,-3.67,
5917.97,-7.36,-10.94,-14.54,-2.68,
5921.88,-16.54,-6.91,-12.29,3.20,
5925.78,-5.41,-3.11,-9.15,3.52,
5929.69,-4.27,-1.69,-6.78,5.55,
5933.59,-0.16,-2.89,-7.46,15.64,
5937.5,1.31,-4.35,-9.34,14.75,
5941.41,7.16,-1.30,-6.74,22.64,
5945.31,8.59,1.71,3.27,29.15,
5949.22,11.25,0.65,1.58,29.65,
5953.12,10.44,-4.42,2.21,27.79,
5957.03,13.77,0.11,-1.29,25.80,
5960.94,14.69,-3.14,-0.60,25.62,
5964.84,11.36,-5.61,7.61,26.97,
5968.75,3.64,-5.04,7.45,31.59,
5972.66,4.03,-7.42,-1.30,19.81,
5976.56,3.81,-8.45,-0.77,16.42,
5980.47,4.60,-6.95,2.99,9.63,
5984.38,-1.41,-13.01,-6.53,0.36,
5988.28,-2.94,-9.91,-0.39,-0.85,
5992.19,-10.38,-18.76,-2.03,3.36,
5996.09,-13.10,-17.93,-6.68,-3.93,
6000.0,-14.98,-13.87,-5.01,-1.27,1
6003.91,-10.33,-14.29,-9.73,-7.00,
6007.81,-10.18,-14.25,-5.81,-6.43,
6011.72,-12.62,-21.76,-11.46,-2.50,
6015.62,-3.87,-10.15,-8.19,-2.73,
6019.53,-2.62,-17.60,-9.48,-2.51,
6023.44,-0.34,-14.27,-10.80,5.53,
6027.34,8.39,-13.07,-10.17,6.17,
6031.25,4.58,-6.30,-12.85,11.74,
6035.16,12.71,-5.93,-6.89,14.14,
6039.06,20.81,-9.59,-11.05,12.87,
6042.97,25.84,-3.70,-10.75,18.53,
6046.88,23.40,-11.09,-9.86,16.18,
6050.78,21.39,-6.43,-10.15,20.08,
6054.69,20.04,-7.42,-7.97,17.82,
6058.59,30.42,-8.59,-3.66,18.45,
6062.5,28.08,-11.23,-3.26,15.39,
6066.41,26.70,-11.22,0.33,14.86,
6070.31,20.04,-7.89,-1.92,8.12,
6074.22,16.06,-13.70,1.30,6.04,
6078.12,13.90,-8.10,3.93,3.62,
6082.03,5.29,-9.10,-3.85,-2.40,
6085.94,7.05,-5.51,-4.86,-6.77,
6089.84,2.21,-7.25,-1.93,-6.29,
6093.75,5.38,-5.53,1.34,-1.67,
6097.66,0.12,-9.43,1.08,-6.46,
6101.56,-4.43,-3.60,6.18,-7.79,
6105.47,0.63,-6.17,2.78,-0.53,
6109.38,2.37,-1.06,3.56,6.28,
6113.28,5.66,4.24,4.89,6.38,
6117.19,7.88,5.29,0.47,9.03,
6121.09,6.85,0.72,0.73,17.85,
6125.0,5.15,7.98,3.48,19.50,
6128.91,9.25,5.34,2.94,18.22,
6132.81,19.09,9.05,5.74,20.00,
6136.72,18.70,16.40,3.60,21.68,
6140.62,22.25,7.51,0.66,22.72,
6144.53,16.45,10.11,2.91,23.48,
6148.44,19.18,9.08,9.19,28.68,
6152.34,18.69,9.82,5.33,27.94,
6156.25,20.01,6.33,4.17,22.63,
6160.16,14.35,2.36,7.72,14.01,
6164.06,14.09,4.11,11.56,17.02,
6167.97,5.14,2.41,8.55,8.37,
6171.88,6.49,0.84,15.05,3.69,
6175.78,1.96,-4.60,16.98,2.69,
6179.69,-0.30,-1.82,20.82,-5.81,
6183.59,-4.01,0.74,19.58,-14.61,
6187.5,-13.22,0.31,14.58,-13.31,
6191.41,-8.91,-2.58,15.98,-12.49,
6195.31,-15.81,-7.20,8.93,-14.76,
6199.22,-9.26,-1.58,13.65,-7.11,
6203.12,-15.47,3.10,13.60,-14.30,
6207.03,-16.91,1.11,11.39,-11.66,
6210.94,-13.68,4.42,13.60,0.50,
6214.84,-11.45,5.41,5.55,-5.24,
6218.75,-11.02,10.48,5.66,2.77,
6222.66,-5.23,-1.23,10.54,-1.88,
6226.56,-1.27,9.65,4.24,5.06,
6230.47,9.59,5.14,5.07,3.93,
6234.38,13.25,3.99,2.10,6.71,
6238.28,9.32,4.24,3.46,8.46,
6242.19,14.37,2.88,4.11,4.20,
6246.09,9.89,7.64,-6.62,12.26,
6250.0,15.06,3.74,0.88,2.81,
6253.91,15.87,7.64,3.93,-0.31,
6257.81,16.33,-2.77,0.26,-1.14,
6261.72,13.82,-3.98,4.99,-6.44,
6265.62,2.00,2.88,1.74,-14.81,
6269.53,5.67,-5.12,3.18,-15.48,
6273.44,-3.02,3.62,7.67,-19.40,
6277.34,-5.14,1.36,11.36,-15.56,
6281.25,-11.74,-1.55,10.80,-15.83,
6285.16,-13.10,1.94,11.81,-17.47,
6289.06,-21.76,4.77,14.11,-22.02,
6292.97,-13.05,3.78,13.54,-18.38,
6296.88,-21.43,10.22,13.54,-8.70,
6300.78,-14.13,6.82,15.60,-7.06,
6304.69,-13.25,19.09,20.99,-8.40,
6308.59,-13.01,22.44,19.22,-4.35,
6312.5,-16.48,12.00,17.36,1.24,
6316.41,-9.72,16.02,12.58,7.00,
6320.31,-6.26,19.75,9.81,13.55,
6324.22,0.39,21.95,7.91,13.11,
6328.12,-4.62,19.90,16.84,14.96,
6332.03,4.27,23.67,13.01,9.59,
6335.94,2.30,17.35,14.16,8.01,
6339.84,7.37,16.13,9.40,6.52,
6343.75,3.67,15.87,9.38,8.75,
6347.66,-0.51,9.21,6.14,6.19,
6351.56,2.24,12.41,10.43,0.62,
6355.47,-1.45,6.79,7.13,-10.48,
6359.38,-3.27,7.71,8.78,-9.92,
6363.28,-7.93,11.09,16.30,-20.46,
6367.19,-3.65,5.72,3.74,-21.76,
6371.09,-12.92,9.01,6.10,-23.87,
6375.0,-21.44,10.15,11.98,-25.30,
6378.91,-24.86,7.50,1.61,-26.10,
6382.81,-24.72,7.98,7.36,-22.93,
6386.72,-27.20,10.84,10.71,-25.19,
6390.62,-25.54,6.21,9.37,-30.84,
6394.53,-31.07,16.94,5.76,-24.87,
6398.44,-29.32,14.02,11.65,-20.13,
6402.34,-22.30,11.58,12.85,-10.27,
6406.25,-27.73,7.34,10.66,-10.92,
6410.16,-21.31,12.41,8.15,-3.34,
6414.06,-26.51,14.88,8.41,-5.31,
6417.97,-16.13,13.92,3.11,-2.10,
6421.88,-5.42,4.13,6.32,0.26,
6425.78,-3.32,6.32,5.74,3.33,
6429.69,-1.65,12.41,-0.93,-1.86,
6433.59,6.14,3.86,-1.92,-2.10,
6437.5,9.60,5.23,-3.48,-8.14,
6441.41,11.20,2.01,-3.53,-7.68,
6445.31,1.24,-4.08,-2.82,-9.37,
6449.22,12.21,1.52,-6.81,-13.86,
6453.12,10.10,-3.15,1.78,-13.99,
6457.03,0.33,-8.57,-9.22,-12.90,
6460.94,1.30,-9.97,-9.48,-20.59,
6464.84,3.36,-0.78,-8.34,-20.60,
6468.75,2.98,1.87,-10.10,-20.40,
6472.66,-3.19,6.79,-6.68,-23.41,
6476.56,-8.11,-0.27,-6.47,-23.84,
6480.47,-11.21,-1.66,-3.52,-17.05,
6484.38,-17.67,6.58,-6.63,-12.34,
6488.28,-10.35,9.21,-1.90,-16.12,
6492.19,-19.36,7.85,-6.11,-8.31,
6496.09,-16.48,11.08,0.69,-8.33,
6500.0,-12.95,11.02,3.23,0.60,
6503.91,-9.43,10.91,1.25,2.46,
6507.81,-8.28,10.86,0.69,7.32,
6511.72,-6.38,13.18,2.49,10.85,
6515.62,8.05,14.91,6.95,9.55,
6519.53,7.13,10.40,6.29,14.00,
6523.44,13.42,10.46,9.37,15.93,
6527.34,11.95,6.33,5.60,13.51,
6531.25,14.93,5.95,4.26,8.50,
6535.16,19.19,7.38,9.91,10.16,
6539.06,17.38,7.21,-0.62,4.69,
6542.97,16.52,0.63,8.47,-1.87,
6546.88,17.61,3.14,1.13,-8.87,
6550.78,15.67,-0.32,-0.56,-8.89,
6554.69,13.13,1.56,-6.32,-11.80,
6558.59,13.57,-5.51,-6.07,-17.53,
6562.5,-1.51,-5.14,-7.65,-14.18,
6566.41,-0.58,-2.11,-6.66,-17.37,
6570.31,-1.81,1.31,0.52,-18.23,
6574.22,-5.37,0.14,-11.07,-21.66,
6578.12,-13.34,3.92,-8.88,-18.24,
6582.03,-12.56,5.89,-10.65,-13.59,
6585.94,-11.76,4.46,-12.74,-17.77,
6589.84,-18.63,4.04,-12.44,-7.66,
6593.75,-17.07,0.29,-10.39,-2.59,
6597.66,-13.35,-1.39,-4.86,0.38,
6601.56,-7.78,-2.92,-12.74,3.82,
6605.47,-7.54,0.08,-13.54,5.38,
6609.38,-2.63,-6.75,-14.44,10.21,
6613.28,0.81,-4.15,-9.79,12.22,
6617.19,10.52,-7.50,-12.50,12.26,
6621.09,14.63,-8.63,-9.01,10.62,
6625.0,15.14,-7.69,-9.92,11.68,
6628.91,19.77,-5.01,-10.91,11.26,
6632.81,23.08,-16.77,-7.25,7.03,
6636.72,20.11,-21.83,-7.06,-1.62,
6640.62,21.75,-20.74,-8.03,-6.26,
6644.53,19.92,-17.67,-10.48,-8.04,
6648.44,21.63,-14.67,-12.31,-6.87,
6652.34,9.83,-11.02,-12.73,-5.86,
6656.25,15.93,-15.01,-10.84,-10.71,
6660.16,15.37,-9.45,-13.15,-9.32,
6664.06,12.06,-11.69,-15.65,-8.96,
6667.97,6.42,-9.22,-16.70,-3.67,
6671.88,9.17,-8.24,-15.89,-1.56,
6675.78,-0.27,-11.91,-18.28,-3.85,
6679.69,2.40,-8.63,-21.63,5.88,
6683.59,-0.13,-5.12,-19.93,5.39,
6687.5,4.20,-6.95,-14.10,13.57,
6691.41,-4.23,-8.97,-13.28,16.51,
6695.31,0.90,-1.15,-18.69,21.04,
6699.22,7.78,-1.80,-13.48,25.69,
6703.12,9.21,-7.30,-15.72,29.06,
6707.03,10.90,0.19,-11.72,30.61,
6710.94,16.76,-4.57,-8.11,24.84,
6714.84,16.81,-8.41,-6.50,23.51,
6718.75,21.48,-2.48,-7.61,26.18,
6722.66,17.56,-7.17,-2.69,18.90,
6726.56,26.62,-9.06,3.30,18.32,
6730.47,27.00,-10.31,-4.35,21.67,
6734.38,26.22,-9.20,0.17,5.14,
6738.28,20.45,-15.10,4.50,6.79,
6742.19,21.40,-14.04,-1.65,1.05,
6746.09,15.69,-6.53,-1.57,-2.83,
6750.0,15.34,-14.89,2.95,-4.44,
6753.91,4.69,-8.49,-1.09,-9.31,
6757.81,7.75,-2.61,0.06,-11.08,
6761.72,-0.05,-11.04,-1.49,-9.46,
6765.62,-1.75,-1.67,-0.74,-4.49,
6769.53,-7.51,-8.06,1.75,3.73,
6773.44,-10.58,-1.27,-9.72,-1.16,
6777.34,-13.00,-4.01,-2.47,4.31,
6781.25,-16.80,-3.48,-8.42,2.19,
6785.16,-14.38,-2.77,-7.75,11.59,
6789.06,-17.69,-5.42,-7.40,15.08,
6792.97,-12.91,-2.74,-12.72,13.27,
6796.88,-7.44,-6.51,-9.23,18.34,
6800.78,-6.98,-10.16,-17.41,18.97,
6804.69,-8.75,-7.35,-12.52,15.44,
6808.59,-6.28,-15.35,-15.60,19.14,
6812.5,-2.66,-9.42,-11.64,15.32,
6816.41,6.11,-11.79,-11.61,14.45,
6820.31,10.65,-13.49,-14.52,13.12,
6824.22,4.32,-14.25,-13.32,7.42,
6828.12,6.18,-16.16,-12.21,5.91,
6832.03,1.93,-15.31,-15.89,3.09,
6835.94,8.60,-19.21,-3.29,2.98,
6839.84,9.67,-13.76,-4.41,-3.93,
6843.75,5.07,-12.95,-4.44,-11.61,
6847.66,-3.58,-9.65,-5.76,-6.96,
6851.56,1.01,-10.94,-0.78,-4.44,
6855.47,-11.72,-5.43,-2.93,-0.37,
6859.38,-8.49,-12.10,-2.11,-2.01,
6863.28,-7.31,-12.83,0.19,6.83,
6867.19,-16.72,-7.44,-4.37,9.87,
6871.09,-20.90,-4.42,-6.73,6.23,
6875.0,-18.37,-8.75,-1.69,8.80,
6878.91,-19.43,-8.30,-4.26,17.46,
6882.81,-25.14,-2.50,-3.71,24.89,
6886.72,-19.82,-6.95,-1.10,25.86,
6890.62,-23.52,-6.38,2.25,21.67,
6894.53,-17.11,-9.55,-2.55,21.94,
6898.44,-8.80,-9.72,-2.80,24.97,
6902.34,-8.31,-6.39,-3.96,21.62,
6906.25,0.97,-4.80,0.69,25.15,
6910.16,2.13,-7.26,1.84,18.02,
6914.06,9.43,-5.78,1.11,19.48,
6917.97,9.36,-8.32,3.44,6.46,
6921.88,8.08,-5.19,3.60,5.06,
6925.78,6.99,-3.72,6.14,-1.19,
6929.69,9.86,-2.34,7.31,-2.55,
6933.59,10.42,-0.65,9.38,-6.16,
6937.5,5.59,0.11,6.54,-12.46,
6941.41,5.40,0.99,7.76,-11.29,
6945.31,-1.33,3.95,6.91,-10.28,
6949.22,-1.56,5.66,11.88,-18.46,
6953.12,-12.27,6.07,11.40,-12.73,
6957.03,-8.43,8.45,10.06,-10.14,
6960.94,-17.45,9.45,14.87,-11.21,
6964.84,-14.89,7.92,13.01,-2.91,
6968.75,-21.71,6.74,11.43,-2.81,
6972.66,-25.80,7.60,14.60,-0.84,
6976.56,-20.53,8.12,7.72,2.03,
6980.47,-23.25,5.99,12.96,5.36,
6984.38,-24.18,4.36,8.36,7.23,
6988.28,-20.62,3.72,2.13,5.03,
6992.19,-23.41,5.47,2.64,5.60,
6996.09,-19.26,1.90,3.59,3.95,
7000.0,-15.82,3.28,3.64,7.33,
7003.91,-13.49,-1.81,-2.53,5.48,
7007.81,-5.03,-2.81,-0.97,-1.77,
7011.72,-4.54,2.04,-2.79,-2.06,
7015.62,1.47,-3.76,-5.09,-5.34,
7019.53,5.60,-3.13,-1.50,-10.07,
7023.44,-3.85,-2.40,-2.74,-15.89,
7027.34,6.89,-5.62,-0.61,-19.56,
7031.25,3.99,-6.10,0.46,-17.43,
7035.16,4.16,-4.66,-0.55,-21.30,
7039.06,2.34,-4.69,0.78,-17.45,
7042.97,-1.66,-2.78,6.66,-17.80,
7046.88,-1.94,1.86,4.93,-15.52,
7050.78,-9.19,10.96,5.58,-12.40,
7054.69,-12.70,3.67,7.53,-12.21,
7058.59,-16.24,6.23,8.25,0.11,
7062.5,-16.07,4.65,12.77,2.96,
7066.41,-21.78,10.54,9.01,0.13,
7070.31,-21.77,5.41,9.10,3.33,
7074.22,-18.33,6.09,14.87,8.91,
7078.12,-16.32,9.94,15.22,13.89,
7082.03,-13.52,3.54,11.00,3.10,
7085.94,-12.21,1.35,15.12,15.47,
7089.84,-13.97,6.24,10.53,5.12,
7093.75,3.76,6.02,5.84,12.72,
7097.66,0.91,7.96,11.50,6.37,
7101.56,6.56,-2.74,14.06,4.47,
7105.47,7.78,5.36,14.96,-2.10,
7109.38,18.08,6.34,17.12,-5.93,
7113.28,21.20,4.95,13.60,-10.27,
7117.19,22.00,8.88,9.98,-16.60,
7121.09,16.93,8.86,6.87,-21.80,
7125.0,21.84,11.86,11.70,-21.23,
7128.91,22.08,12.57,7.03,-20.25,
7132.81,26.15,11.76,5.86,-29.59,
7136.72,16.29,12.52,10.54,-25.77,
7140.62,18.70,17.43,10.45,-26.39,
7144.53,17.40,23.02,7.75,-22.82,
7148.44,8.22,18.37,8.84,-24.63,
7152.34,4.40,22.55,15.12,-15.21,
7156.25,2.07,23.91,11.22,-14.93,
7160.16,-5.50,23.15,14.94,-13.83,
7164.06,-7.82,24.88,12.94,-10.78,
7167.97,-6.75,19.57,15.73,-2.09,
7171.88,-1.89,18.67,13.94,1.58,
7175.78,-8.19,13.16,8.24,1.85,
7179.69,-7.85,13.97,12.45,-0.69,
7183.59,-5.18,14.45,16.45,-1.08,
7187.5,-3.82,15.60,11.06,-2.54,
7191.41,0.55,10.87,9.52,-2.44,
7195.31,1.04,4.69,11.91,-3.97,
7199.22,11.41,0.92,5.44,-7.26,
7203.12,13.75,11.59,6.28,-14.06,
7207.03,12.46,0.98,8.12,-15.02,
7210.94,15.27,8.41,6.52,-18.40,
7214.84,17.38,6.08,-4.17,-18.33,
7218.75,21.89,6.24,1.56,-21.45,
7222.66,20.40,10.47,-1.56,-17.42,
7226.56,21.58,6.22,-3.15,-24.16,
7230.47,20.94,16.02,-4.67,-20.07,
7234.38,16.31,8.56,-5.01,-16.92,
7238.28,7.44,6.09,-4.11,-15.63,
7242.19,9.03,10.67,-1.21,-15.29,
7246.09,2.85,12.07,-4.22,-7.39,
7250.0,5.06,3.00,0.59,-2.92,
7253.91,-5.55,11.51,2.38,5.41,
7257.81,-5.10,9.08,-0.31,0.90,
7261.72,1.43,2.92,5.55,8.50,
7265.62,-6.53,3.90,4.93,16.77,
7269.53,-6.92,1.50,0.08,15.31,
7273.44,-13.32,-2.71,3.64,15.06,
7277.34,-6.33,-0.33,-0.20,12.73,
7281.25,-2.77,0.89,7.91,6.75,
7285.16,5.67,-7.00,8.78,8.96,
7289.06,7.69,0.64,7.47,6.28,
7292.97,3.79,-1.28,6.38,0.69,
7296.88,9.52,-0.60,7.55,2.07,
7300.78,15.11,-4.35,6.40,-4.63,
7304.69,14.67,5.13,7.70,-9.11,
7308.59,23.31,4.51,9.74,-14.53,
7312.5,22.70,9.95,0.55,-18.18,
7316.41,23.19,8.38,6.60,-16.24,
7320.31,23.22,8.26,1.57,-19.94,
7324.22,22.52,6.65,0.04,-17.67,
7328.12,23.70,7.69,0.17,-16.03,
7332.03,20.42,15.51,-0.72,-14.40,
7335.94,18.43,8.91,-4.65,-16.74,
7339.84,13.67,11.63,-2.00,-8.87,
7343.75,8.80,14.04,-5.21,-3.22,
7347.66,5.74,7.48,-5.78,3.10,
7351.56,10.64,10.63,-5.87,-2.66,
7355.47,-3.40,9.35,-8.32,11.02,
7359.38,-6.07,5.11,-10.36,10.78,
7363.28,-10.79,3.64,-12.42,10.28,
7367.19,-8.42,7.16,-6.73,16.86,
7371.09,-14.19,3.59,-6.27,7.31,
7375.0,-10.72,-1.90,-6.56,9.11,
7378.91,-6.92,4.70,-7.66,8.22,
7382.81,-10.59,-0.07,-9.52,10.80,
7386.72,0.46,3.01,-1.03,5.66,
7390.62,-0.43,-5.16,-10.30,4.58,
7394.53,-3.33,-0.15,-8.81,-1.29,
7398.44,8.73,-2.41,-4.73,-4.29,
7402.34,8.29,-3.79,-9.25,-8.80,
7406.25,2.63,-6.45,-4.80,-7.79,
7410.16,5.32,0.09,-6.79,-7.08,
7414.06,5.24,-3.24,-6.97,-9.16,
7417.97,10.37,0.81,-4.34,-6.38,
7421.88,3.69,-1.20,-2.78,-2.04,
7425.78,2.60,0.76,-11.37,-3.37,
7429.69,3.21,-0.41,-8.98,6.44,
7433.59,-5.42,-1.36,-9.93,7.72,
7437.5,-9.11,-3.03,-7.94,8.08,
7441.41,-10.73,-2.88,-18.82,16.14,
7445.31,-20.13,-5.12,-11.46,16.89,
7449.22,-24.23,-7.41,-15.66,22.43,
7453.12,-21.96,-8.15,-20.19,28.25,
7457.03,-31.32,-11.74,-13.32,24.77,
7460.94,-30.44,-14.51,-16.86,34.08,
7464.84,-30.83,-12.38,-15.40,25.53,
7468.75,-29.75,-18.34,-12.91,28.81,
7472.66,-19.94,-18.43,-19.21,26.32,
7476.56,-19.72,-12.42,-17.24,26.01,
7480.47,-17.60,-9.93,-10.76,21.96,
7484.38,-15.91,-9.11,-10.14,9.06,
7488.28,-9.34,-11.34,-3.24,9.09,
7492.19,-4.69,-13.65,-1.47,8.17,
7496.09,-3.43,-9.27,-4.12,4.71,
7500.0,0.49,-10.30,-4.47,-6.81,
7503.91,0.89,-5.48,0.19,-6.97,
7507.81,8.12,-7.04,1.50,-7.46,
7511.72,7.82,-8.98,3.19,-5.08,
7515.62,8.44,3.23,3.55,-1.87,
7519.53,8.36,-4.49,1.33,-4.55,
7523.44,4.72,1.45,-1.34,-1.65,
7527.34,3.72,-6.15,0.54,2.86,
7531.25,0.49,-0.78,-2.96,2.05,
7535.16,-4.97,-7.22,-1.55,3.52,
7539.06,-8.04,-8.67,-6.50,12.63,
7542.97,-9.97,-3.18,-5.26,9.11,
7546.88,-10.87,-5.58,-7.42,18.13,
7550.78,-24.21,-1.21,-10.07,20.41,
7554.69,-19.36,-8.52,-6.56,16.17,
7558.59,-18.72,-9.38,-10.33,22.60,
7562.5,-17.91,-7.09,-14.86,18.34,
7566.41,-18.47,-5.92,-12.62,16.82,
7570.31,-17.45,-7.29,-13.35,17.65,
7574.22,-17.13,-7.54,-16.29,12.22,
7578.12,-11.42,-14.19,-16.16,9.40,
7582.03,-9.42,-7.39,-22.27,0.13,
7585.94,-3.49,-7.10,-9.11,1.45,
7589.84,0.55,-1.93,-21.22,-6.09,
7593.75,-1.33,-12.06,-9.03,-4.23,
7597.66,0.81,-3.27,-10.68,-6.70,
7601.56,7.08,-8.99,-13.69,-2.02,
7605.47,3.83,-7.13,-11.88,-6.87,
7609.38,-0.82,-9.94,-8.94,0.29,
7613.28,8.42,-6.73,-8.71,-6.63,
7617.19,4.25,-6.12,-9.13,3.19,
7621.09,4.05,-4.30,0.11,6.59,
7625.0,-5.86,-11.02,-5.96,6.22,
7628.91,-4.02,-3.74,-5.00,9.25,
7632.81,-2.57,-9.97,-5.02,17.32,
7636.72,-8.95,-13.10,-4.47,23.77,
7640.62,-10.23,-14.94,-4.55,27.28,
7644.53,-17.71,-18.08,-6.60,26.29,
7648.44,-19.60,-15.36,-4.04,24.44,
7652.34,-19.34,-12.70,-3.75,26.53,
7656.25,-18.08,-15.40,-1.85,17.48,
7660.16,-20.95,-16.92,-5.84,18.55,
7664.06,-20.05,-20.47,-4.53,19.81,
7667.97,-18.00,-14.77,-7.11,11.92,
7671.88,-13.82,-18.44,-2.40,8.66,
7675.78,-8.54,-13.32,-9.93,4.26,
7679.69,-5.38,-20.23,-4.35,-0.86,
7683.59,-5.41,-8.99,-3.40,-11.44,
7687.5,2.16,-12.07,-3.19,-10.80,
7691.41,4.82,-8.39,-4.64,-8.68,
7695.31,13.47,-6.49,-2.20,-13.38,
7699.22,15.51,-4.93,-3.94,-14.87,
7703.12,11.01,-3.38,9.73,-17.87,
7707.03,16.99,0.11,1.25,-17.16,
7710.94,19.34,-0.86,7.81,-13.70,
7714.84,17.91,-1.39,4.42,-8.93,
7718.75,22.60,-2.71,4.26,-7.07,
7722.66,14.79,-4.43,4.73,-9.20,
7726.56,13.78,-2.55,14.86,0.77,
7730.47,7.99,-4.03,8.59,-1.53,
7734.38,7.75,2.05,9.24,2.95,
7738.28,-0.93,-6.23,10.37,6.44,
7742.19,2.87,-6.61,12.35,6.30,
7746.09,-5.40,-6.07,7.14,7.64,
7750.0,-6.37,-0.34,8.10,9.55,
7753.91,2.22,-3.84,5.11,6.99,
7757.81,-7.15,0.57,5.54,1.47,
7761.72,-4.33,-6.02,3.39,1.03,
7765.62,0.84,-8.18,0.81,-2.31,
7769.53,8.91,-0.65,2.58,-7.47,
7773.44,5.26,-2.42,-2.67,-15.04,
7777.34,11.26,4.93,-1.69,-16.10,
7781.25,16.43,10.38,-7.39,-15.09,
7785.16,17.24,5.98,-0.84,-13.97,
7789.06,19.53,12.60,-6.95,-17.22,
7792.97,18.16,2.78,-2.35,-17.26,
7796.88,22.52,9.31,-5.67,-15.02,
7800.78,20.76,8.50,-2.21,-15.72,
7804.69,25.21,7.39,-10.07,-17.93,
7808.59,27.22,9.34,2.72,-9.90,
7812.5,27.38,5.99,2.95,-7.63,
7816.41,17.92,7.96,-3.08,2.35,
7820.31,21.65,3.84,6.93,0.06,
7824.22,11.43,3.03,2.73,7.29,
7828.12,10.61,2.66,4.47,3.50,
7832.03,4.91,-1.91,2.72,6.52,
7835.94,-1.27,2.31,10.18,8.59,
7839.84,-7.29,-6.43,7.30,11.73,
7843.75,-3.71,3.78,16.78,8.75,
7847.66,-6.41,-4.56,17.63,9.65,
7851.56,-11.96,-2.08,10.71,3.20,
7855.47,-11.68,-5.49,7.28,4.37,
7859.38,-1.99,-7.73,17.80,-8.04,
7863.28,-8.58,-5.47,14.30,-5.92,
7867.19,-9.72,-2.14,15.75,-14.82,
7871.09,1.01,3.75,11.76,-12.04,
7875.0,-4.95,-0.27,14.33,-17.20,
7878.91,8.00,6.22,12.30,-20.98,
7882.81,8.57,0.53,14.34,-23.43,
7886.72,11.62,4.71,16.94,-29.03,
7890.62,15.26,5.64,10.47,-22.87,
7894.53,18.64,7.84,12.71,-22.51,
7898.44,18.76,8.20,7.86,-29.09,
7902.34,24.26,7.77,6.47,-23.31,
7906.25,15.89,13.34,9.76,-20.48,
7910.16,15.67,6.86,13.62,-18.31,
7914.06,16.29,10.97,11.72,-9.76,
7917.97,12.88,1.97,11.05,-8.53,
7921.88,6.08,12.80,15.44,-5.19,
7925.78,7.54,7.94,6.62,-3.02,
7929.69,5.44,7.18,9.92,3.20,
7933.59,0.38,3.79,11.78,-0.80,
7937.5,-6.73,9.54,12.35,0.61,
7941.41,-0.98,5.51,11.03,-0.95,
7945.31,-9.51,7.06,11.79,-7.54,
7949.22,-10.33,5.02,11.20,3.06,
7953.12,-2.00,17.11,13.33,-11.76,
7957.03,-6.85,8.17,12.94,-14.45,
7960.94,-4.27,12.36,14.01,-16.61,
7964.84,-5.30,8.70,11.77,-18.55,
7968.75,-0.69,14.14,7.92,-19.66,
7972.66,5.52,16.40,14.91,-28.94,
7976.56,1.70,17.09,4.08,-30.30,
7980.47,7.46,15.67,4.11,-22.19,
7984.38,9.29,17.19,6.79,-22.80,
7988.28,15.41,22.72,-1.37,-20.79,
7992.19,16.05,14.81,0.19,-14.57,
7996.09,16.69,21.33,0.17,-9.62,
8000.0,14.12,21.50,-0.55,-7.39,2
8003.91,11.01,11.22,-5.28,-10.59,
8007.81,13.56,19.24,-7.13,4.44,
8011.72,7.07,10.85,-0.39,5.67,
8015.62,9.88,12.23,-4.60,6.23,
8019.53,1.65,6.81,-2.55,12.66,
8023.44,-6.93,9.31,-4.10,7.08,
8027.34,-13.44,1.93,-2.29,9.72,
8031.25,-18.98,-1.28,3.62,11.07,
8035.16,-20.75,6.52,1.02,14.04,
8039.06,-20.25,3.43,1.70,7.41,
8042.97,-21.76,2.14,2.76,6.31,
8046.88,-27.19,-3.54,7.83,6.75,
8050.78,-29.39,-0.21,6.53,-1.06,
8054.69,-20.74,5.63,9.57,-6.45,
8058.59,-24.99,3.45,6.62,-9.83,
8062.5,-21.51,1.78,7.01,-12.48,
8066.41,-21.00,0.82,15.11,-11.26,
8070.31,-10.06,5.49,13.56,-13.03,
8074.22,-10.99,11.03,12.32,-19.09,
8078.12,-7.55,9.53,13.59,-14.26,
8082.03,-5.07,7.62,14.51,-16.86,
8085.94,-5.07,11.03,3.74,-10.99,
8089.84,2.21,7.82,12.52,-12.71,
8093.75,2.07,2.90,4.16,-6.74,
8097.66,0.57,2.96,9.30,-4.52,
8101.56,-0.44,4.96,9.61,2.87,
8105.47,0.61,6.37,1.92,8.79,
8109.38,2.53,2.38,2.87,9.52,
8113.28,-0.96,5.61,3.01,10.55,
8117.19,-11.52,6.29,-1.24,12.23,
8121.09,-9.92,4.62,-2.52,9.10,
8125.0,-8.51,3.42,2.54,12.63,
8128.91,-14.71,4.22,-5.80,7.37,
8132.81,-20.57,0.10,2.15,18.15,
8136.72,-20.44,3.11,-4.42,7.45,
8140.62,-19.70,4.93,-4.62,5.10,
8144.53,-22.58,2.98,-4.73,4.50,
8148.44,-18.43,4.98,-0.49,-0.41,
8152.34,-15.24,7.39,2.18,0.83,
8156.25,-13.34,13.62,-4.96,-0.44,
8160.16,-15.92,10.69,-4.70,-12.99,
8164.06,-12.36,10.05,-1.30,-9.14,
8167.97,-1.60,10.95,-5.56,-3.77,
8171.88,3.31,11.39,-7.78,-9.95,
8175.78,2.06,12.14,0.34,-4.34,
8179.69,7.98,12.56,-7.29,1.81,
8183.59,14.54,11.79,0.23,1.37,
8187.5,12.08,12.92,-5.75,4.47,
8191.41,18.57,6.64,-8.61,10.70,
8195.31,6.97,8.32,-3.23,11.42,
8199.22,10.56,8.72,-5.52,18.29,
8203.12,10.33,2.27,-5.32,25.20,
8207.03,9.95,-1.54,-6.10,27.46,
8210.94,1.72,-3.93,-6.39,22.17,
8214.84,-1.86,-2.72,-13.15,25.06,
8218.75,-13.11,-6.66,-9.96,25.21,
8222.66,-9.94,-4.31,-9.85,24.24,
8226.56,-11.19,-11.80,-14.37,22.30,
8230.47,-13.81,-14.87,-11.66,15.83,
8234.38,-19.82,-8.22,-20.23,12.70,
8238.28,-20.23,-12.74,-15.78,13.00,
8242.19,-12.98,-4.15,-20.26,8.32,
8246.09,-20.39,-4.83,-12.90,5.79,
8250.0,-14.59,-6.78,-15.62,-0.33,
8253.91,-12.52,-3.39,-9.85,-0.28,
8257.81,-11.77,-8.61,-7.31,-2.15,
8261.72,-4.05,-6.31,-5.96,-6.80,
8265.62,-8.16,-3.68,-7.66,-6.28,
8269.53,-2.11,-6.76,-3.65,-5.64,
8273.44,5.30,-6.82,-3.07,-3.23,
8277.34,6.15,-6.39,-2.90,-2.12,
8281.25,12.95,-5.08,2.07,4.67,
8285.16,13.30,-5.74,-0.83,7.45,
8289.06,16.67,-4.98,2.85,10.01,
8292.97,16.03,-12.72,-1.70,13.97,
8296.88,11.02,-7.64,0.44,16.36,
8300.78,16.72,-12.51,-1.14,10.59,
8304.69,13.09,-12.23,-6.28,19.38,
8308.59,9.34,-11.13,-8.21,18.03,
8312.5,6.31,-16.82,-3.94,13.48,
8316.41,-2.83,-13.90,-4.38,16.20,
8320.31,2.22,-12.13,-5.89,17.09,
8324.22,-6.57,-11.93,-8.84,18.80,
8328.12,-8.01,-3.67,-11.01,8.01,
8332.03,-5.75,-5.60,-12.04,5.53,
8335.94,-3.42,-4.31,-13.44,9.42,
8339.84,1.16,-12.79,-14.42,6.57,
8343.75,-2.45,0.55,-13.61,-6.20,
8347.66,-3.74,-2.48,-11.88,-4.28,
8351.56,-0.39,-2.88,-15.61,-4.89,
8355.47,11.46,-0.82,-19.91,-4.15,
8359.38,9.36,0.60,-18.11,-4.10,
8363.28,11.28,-1.47,-17.27,-1.11,
8367.19,12.62,-0.45,-15.65,0.54,
8371.09,20.31,1.85,-16.36,2.68,
8375.0,25.11,-1.67,-8.48,6.61,
8378.91,27.83,0.08,-11.07,8.19,
8382.81,31.82,2.02,-12.95,14.85,
8386.72,30.24,-5.94,-16.03,14.76,
8390.62,27.31,-3.46,-12.91,23.93,
8394.53,25.74,-9.72,-10.07,20.83,
8398.44,21.81,-6.28,-4.93,27.77,
8402.34,26.44,-8.73,-4.19,22.50,
8406.25,21.63,-7.82,-6.63,23.79,
8410.16,13.21,-13.37,-9.01,13.82,
8414.06,12.95,-8.08,-5.80,20.74,
8417.97,5.05,-13.16,-3.65,12.66,
8421.88,9.97,-16.50,-5.54,10.62,
8425.78,-1.74,-17.81,-5.58,9.33,
8429.69,-0.07,-12.09,-4.71,3.83,
8433.59,-5.90,-11.32,-5.26,-0.32,
8437.5,-5.30,-13.55,-9.32,-8.76,
8441.41,-9.24,-14.08,-7.40,-9.80,
8445.31,-6.14,-11.09,-8.48,-15.42,
8449.22,-4.92,-6.10,-7.58,-12.67,
8453.12,-4.50,-13.96,-7.34,-18.65,
8457.03,-0.74,-12.09,-8.13,-13.42,
8460.94,2.24,-12.92,-6.05,-13.61,
8464.84,6.36,-9.32,-1.64,-7.56,
8468.75,11.35,-12.31,-2.98,-14.17,
8472.66,11.78,-6.86,-2.81,-7.02,
8476.56,11.35,-10.29,-2.02,-2.84,
8480.47,13.89,-18.39,-0.20,-3.59,
8484.38,13.30,-17.40,6.97,4.28,
8488.28,15.78,-18.26,5.01,4.32,
8492.19,17.13,-17.38,9.58,5.72,
8496.09,11.55,-18.10,5.39,4.32,
8500.0,4.97,-21.26,3.76,4.36,
8503.91,5.87,-17.38,6.35,10.13,
8507.81,3.07,-18.91,8.28,6.15,
8511.72,-2.95,-15.50,8.10,0.97,
8515.62,-5.40,-9.06,7.92,-2.91,
8519.53,-14.35,-8.48,5.65,-5.45,
8523.44,-11.26,-5.03,1.90,-6.06,
8527.34,-13.17,-4.00,4.22,-5.52,
8531.25,-13.98,-2.71,-2.01,-15.99,
8535.16,-14.06,-4.42,0.92,-17.24,
8539.06,-12.36,-3.55,-0.62,-20.07,
8542.97,-13.01,3.46,1.14,-16.83,
8546.88,-2.73,3.74,-1.46,-20.27,
8550.78,-7.60,0.85,-4.57,-20.62,
8554.69,-7.59,4.15,-6.73,-15.92,
8558.59,-0.78,4.97,-1.49,-12.02,
8562.5,2.82,1.83,-5.68,-11.31,
8566.41,6.40,5.65,-5.65,-7.57,
8570.31,11.07,1.01,-7.91,-1.37,
8574.22,11.67,-1.32,-3.82,-0.28,
8578.12,18.57,-4.11,-3.85,6.41,
8582.03,16.04,-0.24,-1.54,7.27,
8585.94,13.41,-2.65,2.94,6.89,
8589.84,16.35,-4.42,-0.02,14.31,
8593.75,7.10,-4.59,2.51,14.50,
8597.66,5.86,3.59,0.69,10.87,
8601.56,7.68,-3.33,8.11,5.28,
8605.47,-0.59,-1.50,11.67,4.52,
8609.38,-2.04,4.13,4.91,3.31,
8613.28,-9.86,-3.52,6.42,-3.54,
8617.19,-19.59,-0.84,8.46,-6.94,
8621.09,-14.43,3.67,7.67,-10.98,
8625.0,-23.16,6.71,5.81,-14.17,
8628.91,-23.68,9.90,9.61,-22.40,
8632.81,-25.03,7.31,7.55,-24.19,
8636.72,-20.72,2.97,8.51,-26.89,
8640.62,-25.22,3.19,11.10,-30.96,
8644.53,-19.46,4.99,11.47,-26.20,
8648.44,-24.20,1.16,11.49,-25.56,
8652.34,-17.76,7.47,13.88,-27.16,
8656.25,-11.75,3.06,14.60,-26.67,
8660.16,-6.27,-1.08,9.86,-17.91,
8664.06,-0.30,4.58,8.25,-16.25,
8667.97,4.88,-1.23,5.66,-6.49,
8671.88,-1.49,-4.55,12.00,-11.67,
8675.78,3.10,-3.76,9.98,-3.02,
8679.69,-4.37,-7.02,10.30,0.19,
8683.59,-0.13,-9.69,8.78,-2.31,
8687.5,-3.63,-2.87,11.04,-3.91,
8691.41,-3.87,-1.79,11.35,-0.27,
8695.31,-6.24,-5.85,17.19,-0.62,
8699.22,-12.13,-6.32,7.00,-4.92,
8703.12,-9.92,-0.72,12.30,-8.71,
8707.03,-12.07,9.67,5.62,-9.81,
8710.94,-18.36,6.42,12.91,-13.32,
8714.84,-20.66,11.49,9.58,-17.07,
8718.75,-23.49,5.73,13.59,-13.76,
8722.66,-25.40,8.87,16.76,-23.99,
8726.56,-26.19,13.19,18.79,-19.40,
8730.47,-25.72,12.30,14.04,-18.15,
8734.38,-20.87,15.20,14.25,-23.93,
8738.28,-26.14,12.56,15.58,-19.39,
8742.19,-14.94,13.36,7.26,-19.52,
8746.09,-12.30,14.37,11.22,-14.34,
8750.0,-11.90,15.03,7.84,-9.13,
8753.91,-5.68,7.60,12.52,-6.75,
8757.81,1.39,13.44,6.30,-2.87,
8761.72,3.82,9.33,2.34,1.38,
8765.62,2.03,7.25,3.00,8.62,
8769.53,4.12,11.23,6.13,13.04,
8773.44,16.57,5.91,-1.83,8.79,
8777.34,17.94,16.06,-4.57,14.19,
8781.25,10.18,4.13,-3.16,19.69,
8785.16,12.07,12.68,1.41,12.28,
8789.06,16.06,7.73,-2.05,14.57,
8792.97,8.87,11.16,2.31,14.21,
8796.88,1.50,13.01,4.34,12.25,
8800.78,-3.88,11.65,1.74,2.46,
8804.69,2.46,16.38,4.28,-1.09,
8808.59,-3.52,18.55,5.59,-3.49,
8812.5,-5.62,14.04,3.18,-7.99,
8816.41,-5.26,13.59,7.96,-10.56,
8820.31,-10.87,16.23,10.42,-16.77,
8824.22,-6.83,10.93,11.93,-14.12,
8828.12,-6.87,9.26,8.09,-13.75,
8832.03,-12.49,14.14,15.64,-19.95,
8835.94,-11.56,9.81,13.21,-17.74,
8839.84,-5.81,10.73,15.50,-15.32,
8843.75,-1.28,11.75,17.04,-9.09,
8847.66,-0.80,7.60,10.25,-5.99,
8851.56,6.80,3.43,18.42,-0.59,
8855.47,13.51,0.27,13.99,-1.19,
8859.38,9.61,4.40,16.49,4.43,
8863.28,12.59,-2.41,11.92,8.61,
8867.19,17.55,2.77,9.27,8.39,
8871.09,20.90,0.27,4.56,17.09,
8875.0,15.22,1.83,7.40,13.40,
8878.91,21.71,-5.75,6.10,11.09,
8882.81,14.43,-0.56,8.54,13.67,
8886.72,11.61,5.88,7.08,8.04,
8890.62,9.02,0.52,4.10,7.18,
8894.53,9.04,2.30,2.56,3.72,
8898.44,1.40,7.80,-2.77,3.18,
8902.34,2.12,10.51,-1.63,3.11,
8906.25,-4.01,8.04,1.63,-7.23,
8910.16,-2.63,10.83,-1.40,-7.27,
8914.06,-1.70,8.83,0.28,-11.91,
8917.97,-10.85,11.39,-1.08,-7.23,
8921.88,-9.64,8.79,3.70,-7.93,
8925.78,-10.33,9.62,-4.53,-4.33,
8929.69,-6.25,11.47,2.37,-4.08,
8933.59,-4.49,16.58,-2.14,1.08,
8937.5,-1.43,10.04,-3.07,9.06,
8941.41,4.82,5.85,6.60,7.74,
8945.31,11.55,6.24,-5.14,11.61,
8949.22,8.26,0.60,-2.48,16.91,
8953.12,11.71,7.02,-5.15,19.40,
8957.03,19.40,4.76,-2.55,24.45,
8960.94,18.37,1.21,-6.06,30.28,
8964.84,23.03,0.41,-3.74,32.20,
8968.75,31.40,1.06,1.37,28.65,
8972.66,30.51,6.99,-7.62,26.34,
8976.56,21.98,5.28,-5.37,26.30,
8980.47,22.23,7.49,-5.43,24.95,
8984.38,22.15,8.17,-11.86,21.98,
8988.28,22.50,11.32,-4.51,22.79,
8992.19,20.80,7.43,-8.95,8.75,
8996.09,14.56,9.32,-13.11,10.12,
9000.0,9.61,16.12,-12.53,10.12,
9003.91,8.22,7.15,-11.79,7.08,
9007.81,3.69,10.06,-10.32,-0.08,
9011.72,3.75,3.98,-13.73,-6.33,
9015.62,8.64,5.53,-10.42,2.02,
9019.53,-0.11,10.47,-7.33,-11.09,
9023.44,-3.30,3.89,-14.14,-11.86,
9027.34,1.65,8.36,-10.62,-4.33,
9031.25,4.40,3.58,-10.25,-1.66,
9035.16,3.30,-7.44,-6.19,-0.18,
9039.06,-2.29,-6.35,-2.75,6.17,
9042.97,3.59,-4.35,-2.38,8.02,
9046.88,8.67,-14.25,2.00,13.19,
9050.78,13.19,-10.78,-3.65,16.01,
9054.69,14.32,-8.57,3.18,15.68,
9058.59,15.39,-11.50,2.63,13.64,
9062.5,19.29,-15.68,0.71,26.48,
9066.41,16.02,-14.32,0.43,18.68,
9070.31,14.44,-9.84,3.11,19.75,
9074.22,17.79,-11.02,-2.40,16.37,
9078.12,15.83,-11.91,-1.22,13.63,
9082.03,17.77,-5.05,2.20,12.53,
9085.94,5.23,-5.65,1.27,3.98,
9089.84,2.92,-6.23,-3.20,6.96,
9093.75,-2.40,-6.37,2.91,-1.26,
9097.66,-10.42,-4.98,-9.88,-3.14,
9101.56,-10.87,-12.00,-9.54,-4.09,
9105.47,-10.66,-4.67,-7.83,-1.17,
9109.38,-15.63,-4.11,-13.62,-4.60,
9113.28,-20.32,-13.10,-14.15,-2.43,
9117.19,-17.83,-7.62,-17.05,-5.07,
9121.09,-20.74,-11.23,-18.36,-2.07,
9125.0,-19.12,-6.95,-18.14,-4.45,
9128.91,-18.56,-6.69,-20.29,2.45,
9132.81,-17.40,-5.53,-12.43,7.97,
9136.72,-9.84,-13.24,-15.54,7.41,
9140.62,-11.49,-14.41,-18.44,18.29,
9144.53,-7.74,-8.64,-12.62,20.52,
9148.44,2.48,-10.71,-15.69,20.96,
9152.34,4.39,-14.75,-10.04,23.18,
9156.25,7.14,-9.73,-14.34,29.03,
9160.16,6.75,-8.06,-12.87,21.25,
9164.06,9.12,-9.15,-10.81,22.37,
9167.97,7.68,-3.24,-8.31,13.11,
9171.88,6.04,-5.82,-12.68,13.53,
9175.78,9.31,-1.80,-14.36,7.61,
9179.69,5.94,-2.88,-7.00,4.93,
9183.59,2.44,-3.55,-10.40,3.91,
9187.5,0.16,-3.52,-6.64,-2.73,
9191.41,-3.24,1.48,-11.47,-4.19,
9195.31,-10.32,-0.98,-14.16,-15.09,
9199.22,-4.92,-0.79,-12.16,-7.66,
9203.12,-19.68,2.53,-10.60,-15.59,
9207.03,-17.48,-3.21,-7.23,-12.99,
9210.94,-18.74,-6.17,-11.87,-18.90,
9214.84,-21.48,-6.39,-14.32,-16.69,
9218.75,-19.94,-10.42,-7.41,-19.17,
9222.66,-15.68,-7.13,-12.23,-10.66,
9226.56,-15.50,-10.76,-9.10,-5.49,
9230.47,-14.60,-15.44,-9.53,-2.17,
9234.38,-7.99,-15.47,-2.12,-5.91,
9238.28,-1.51,-17.28,-8.74,7.37,
9242.19,1.92,-10.86,-4.74,5.63,
9246.09,-4.65,-19.41,-5.95,7.81,
9250.0,4.47,-13.26,-0.04,10.96,
9253.91,4.61,-21.71,0.32,5.85,
9257.81,4.45,-14.29,-5.11,4.71,
9261.72,2.09,-20.91,-1.95,7.79,
9265.62,6.37,-10.65,1.06,1.92,
9269.53,-1.02,-14.15,-0.16,-6.63,
9273.44,2.76,-9.83,4.34,-6.24,
9277.34,1.52,-9.98,4.65,-11.44,
9281.25,-2.54,-8.24,1.00,-15.11,
9285.16,-4.96,-13.01,2.80,-13.10,
9289.06,-10.28,-5.99,5.51,-19.61,
9292.97,-21.70,-2.87,5.49,-22.74,
9296.88,-19.74,-11.28,1.85,-18.94,
9300.78,-25.42,-4.27,0.04,-21.69,
9304.69,-22.20,-14.13,0.14,-12.61,
9308.59,-27.00,-10.76,-3.37,-19.48,
9312.5,-28.50,-5.37,-0.34,-12.03,
9316.41,-25.29,-10.00,-5.52,-10.06,
9320.31,-26.08,-12.02,-8.78,-9.95,
9324.22,-25.70,-12.43,-10.41,0.33,
9328.12,-23.74,-14.17,-12.29,3.72,
9332.03,-21.11,-19.13,-8.75,6.27,
9335.94,-10.04,-11.78,-8.19,8.59,
9339.84,-7.40,-7.02,-10.32,6.98,
9343.75,0.14,-6.76,-7.88,9.14,
9347.66,1.56,-2.84,-10.63,12.58,
9351.56,-0.53,-8.72,-5.58,11.25,
9355.47,5.11,-7.12,-9.79,13.11,
9359.38,8.18,0.82,-4.63,4.61,
9363.28,10.27,-0.76,-1.63,0.20,
9367.19,8.01,3.66,-3.63,-3.20,
9371.09,5.60,-1.70,-8.53,-13.34,
9375.0,3.54,3.09,-0.33,-11.92,
9378.91,6.00,2.14,6.89,-17.81,
9382.81,-0.01,5.80,3.47,-19.93,
9386.72,-2.64,10.72,-0.68,-22.28,
9390.62,-1.42,5.59,2.31,-25.27,
9394.53,-3.40,5.26,4.55,-32.41,
9398.44,-7.27,-1.81,10.17,-28.34,
9402.34,-6.05,5.83,7.32,-25.36,
9406.25,-4.21,0.80,6.84,-24.01,
9410.16,-12.00,0.35,7.41,-27.82,
9414.06,-11.69,2.96,10.41,-9.41,
9417.97,-11.50,-7.85,10.91,-15.98,
9421.88,-1.02,-4.61,10.97,-10.19,
9425.78,-0.66,1.34,9.41,-7.85,
9429.69,-4.68,1.43,6.52,-2.28,
9433.59,4.99,-3.54,4.16,-3.01,
9437.5,4.22,-0.56,7.08,-2.00,
9441.41,19.04,-2.74,5.06,-2.28,
9445.31,23.47,5.15,3.32,-2.79,
9449.22,20.69,2.14,6.90,-1.55,
9453.12,25.65,1.47,6.33,-3.70,
9457.03,23.02,4.82,7.67,-5.93,
9460.94,23.92,5.48,7.21,-3.09,
9464.84,20.18,-1.06,9.99,-11.02,
9468.75,19.41,13.65,11.49,-11.37,
9472.66,19.66,4.95,8.36,-17.32,
9476.56,15.93,-0.18,5.13,-16.20,
9480.47,12.31,4.70,12.10,-18.70,
9484.38,2.15,0.91,11.97,-17.97,
9488.28,1.48,-0.01,16.83,-18.01,
9492.19,-1.81,2.05,10.89,-20.97,
9496.09,-7.38,-0.99,17.23,-18.95,
9500.0,-4.95,1.38,12.18,-6.86,
9503.91,-9.42,-5.17,11.77,-7.96,
9507.81,-9.87,-2.07,7.00,-7.68,
9511.72,-13.36,-0.31,11.31,-2.12,
9515.62,-7.47,0.97,14.80,6.66,
9519.53,-7.78,-3.14,11.06,4.96,
9523.44,-2.89,-1.08,11.75,5.60,
9527.34,-0.20,0.23,13.45,15.74,
9531.25,2.89,-0.63,8.68,16.81,
9535.16,5.60,3.71,9.75,17.69,
9539.06,9.65,1.04,5.73,15.89,
9542.97,18.18,11.41,0.44,13.63,
9546.88,15.16,4.40,0.74,13.44,
9550.78,20.06,11.61,-3.79,8.10,
9554.69,20.80,13.44,-0.95,2.90,
9558.59,22.60,16.08,-5.53,0.66,
9562.5,19.24,16.44,2.38,-2.25,
9566.41,24.13,16.25,2.66,-11.35,
9570.31,18.27,13.14,3.97,-14.68,
9574.22,9.54,18.96,4.53,-8.94,
9578.12,9.19,15.27,3.35,-19.44,
9582.03,4.38,16.48,1.19,-22.92,
9585.94,-0.88,15.36,2.88,-13.02,
9589.84,3.06,16.02,7.43,-14.25,
9593.75,-5.52,13.95,12.19,-12.12,
9597.66,-7.41,6.77,10.53,-9.89,
9601.56,1.99,6.52,7.87,-4.78,
9605.47,-5.89,18.28,10.11,2.69,
9609.38,-6.37,9.25,14.00,-0.92,
9613.28,2.18,10.65,12.71,9.43,
9617.19,-1.93,12.92,16.60,6.43,
9621.09,3.86,6.56,10.98,15.45,
9625.0,5.32,7.23,11.80,13.81,
9628.91,4.61,6.99,16.35,10.23,
9632.81,16.08,12.80,17.81,12.96,
9636.72,15.24,9.56,19.96,14.35,
9640.62,20.93,13.45,18.83,15.23,
9644.53,17.16,13.61,17.64,7.82,
9648.44,23.03,11.02,12.54,4.49,
9652.34,27.32,10.15,8.89,3.04,
9656.25,21.37,12.12,9.35,-1.45,
9660.16,20.95,8.44,11.28,-8.92,
9664.06,15.78,15.83,0.18,0.91,
9667.97,12.40,9.58,5.79,-3.55,
9671.88,9.54,11.03,8.08,-2.62,
9675.78,6.11,5.65,1.05,-8.96,
9679.69,-0.32,4.05,6.77,-11.36,
9683.59,-5.92,6.51,3.19,-3.44,
9687.5,-6.34,7.03,7.96,-2.21,
9691.41,-17.67,1.33,1.35,2.45,
9695.31,-17.49,3.43,3.09,7.57,
9699.22,-14.23,0.63,4.00,13.41,
9703.12,-13.68,1.42,4.57,18.39,
9707.03,-18.00,3.02,4.11,22.82,
9710.94,-11.45,-3.06,5.14,29.03,
9714.84,-10.66,2.74,6.24,26.70,
9718.75,-19.17,-1.31,8.03,27.08,
9722.66,-12.00,3.37,3.89,27.71,
9726.56,-14.72,5.55,3.66,29.26,
9730.47,-6.27,7.96,0.31,31.29,
9734.38,0.28,10.49,1.21,17.51,
9738.28,-2.82,3.82,0.85,22.06,
9742.19,8.45,8.30,-2.01,12.02,
9746.09,11.72,13.25,1.99,11.34,
9750.0,2.90,11.27,-10.11,5.92,
9753.91,3.21,13.26,-1.08,4.84,
9757.81,0.09,9.76,-7.74,5.86,
9761.72,0.43,11.84,-2.08,-0.92,
9765.62,-1.57,7.81,-4.99,-8.34,
9769.53,-6.50,6.51,-3.77,-4.40,
9773.44,-10.80,6.19,-10.53,-5.50,
9777.34,-19.19,10.41,-6.40,-5.71,
9781.25,-15.50,9.79,-7.12,-2.88,
9785.16,-21.37,4.52,-8.86,-7.44,
9789.06,-20.80,0.95,-7.58,1.88,
9792.97,-24.39,-1.45,-5.81,6.04,
9796.88,-23.60,4.26,-8.65,12.35,
9800.78,-23.56,5.71,-7.50,10.00,
9804.69,-21.50,4.10,-3.43,18.77,
9808.59,-25.08,3.70,-6.15,22.50,
9812.5,-16.36,8.67,4.27,16.89,
9816.41,-14.84,8.81,-1.62,18.95,
9820.31,-10.87,1.87,7.97,21.14,
9824.22,-6.75,1.81,2.49,19.71,
9828.12,3.79,12.51,4.20,20.52,
9832.03,2.91,9.37,4.73,11.33,
9835.94,10.01,5.91,2.26,6.92,
9839.84,10.55,8.54,6.40,6.59,
9843.75,5.30,9.28,5.64,3.81,
9847.66,7.43,2.27,4.69,-2.91,
9851.56,11.74,3.69,2.99,-0.50,
9855.47,10.87,2.28,-2.26,-6.20,
9859.38,10.28,0.22,4.26,-10.91,
9863.28,7.83,-5.52,-6.91,-9.67,
9867.19,-3.32,0.11,-7.25,-4.93,
9871.09,-4.78,-11.56,-4.70,-4.00,
9875.0,-11.78,-5.55,-10.29,-7.30,
9878.91,-8.86,-11.64,-12.74,-0.44,
9882.81,-17.20,-11.98,-14.29,8.37,
9886.72,-16.89,-13.54,-6.49,9.48,
9890.62,-19.24,-13.82,-12.83,16.66,
9894.53,-23.28,-11.08,-15.69,14.66,
9898.44,-24.85,-17.85,-12.53,15.83,
9902.34,-18.63,-10.12,-15.31,24.10,
9906.25,-18.41,-8.95,-17.43,24.61,
9910.16,-14.18,-11.55,-12.93,21.97,
9914.06,-7.95,-6.97,-14.42,27.02,
9917.97,-11.59,-7.16,-11.06,25.75,
9921.88,-8.53,-0.87,-9.71,21.34,
9925.78,-1.42,-2.31,-10.64,15.11,
9929.69,3.86,-3.54,-8.91,7.34,
9933.59,6.96,-2.64,-6.48,7.49,
9937.5,4.51,-1.13,-13.01,-4.38,
9941.41,3.28,0.49,-12.34,-5.31,
9945.31,9.71,-1.98,-12.11,-8.01,
9949.22,5.31,-1.39,-8.50,-14.20,
9953.12,1.73,-9.41,-8.33,-12.03,
9957.03,4.42,-8.12,-13.92,-13.50,
9960.94,-6.59,-4.93,-11.94,-17.83,
9964.84,5.17,-5.42,-10.57,-16.66,
9968.75,-8.77,-11.63,-16.92,-15.42,
9972.66,-11.55,-9.06,-13.44,-11.27,
9976.56,-10.01,-9.99,-13.26,-13.23,
9980.47,-11.50,-9.53,-7.08,-3.96,
9984.38,-13.80,-5.91,-17.03,-5.71,
9988.28,-19.45,-6.63,-11.74,-3.88,
9992.19,-11.91,-7.29,-17.06,1.40,
9996.09,-14.76,-1.83,-14.26,6.26,